Generic               	CD0005965000
Experiment            	Presenilin 2
Description           	Protein name : Presenilin 2. Deposited into the PCDDB by GeYang
Concentration (mg/ml) 	1.06
Temperature           	4
Machine               	Aviv
Pathlength (cm)       	1
Accumulations         	1
High Wavelength       	310
Low Wavelength        	250
Interval (nm)         	0.25
Dwell time (s)        	30
Date                  	2015-04-15T00:00:00
M.R.W. (Da)           	112.545
Smoothing window      	3
PDB                   	No data provided
Swissprot             	P49810
Code                  	No citation information currently associated with this entry.
310  	        2.01951	        2.01951	        2.01951	    0.00000E+00	    0.00000E+00	    0.00000E+00	  
309.7	         1.7347	              5	         1.7347	    0.00000E+00	    0.00000E+00	    0.00000E+00	  
309.5	        1.50168	        1.50168	        1.50168	    0.00000E+00	    0.00000E+00	    0.00000E+00	  
309.2	        1.32908	              5	        1.32908	    0.00000E+00	    0.00000E+00	    0.00000E+00	  
309  	        1.20825	        1.20825	        1.20825	    0.00000E+00	    0.00000E+00	    0.00000E+00	  
308.7	        1.14784	              5	        1.14784	    0.00000E+00	    0.00000E+00	    0.00000E+00	  
308.5	        1.17373	        1.17373	        1.17373	    0.00000E+00	    0.00000E+00	    0.00000E+00	  
308.2	        1.18236	              5	        1.18236	    0.00000E+00	    0.00000E+00	    0.00000E+00	  
308  	        1.11332	        1.11332	        1.11332	    0.00000E+00	    0.00000E+00	    0.00000E+00	  
307.7	        1.46716	              5	        1.46716	    0.00000E+00	    0.00000E+00	    0.00000E+00	  
307.5	        1.98498	        1.98498	        1.98498	    0.00000E+00	    0.00000E+00	    0.00000E+00	  
307.2	        2.68404	              5	        2.68404	    0.00000E+00	    0.00000E+00	    0.00000E+00	  
307  	        3.27091	        3.27091	        3.27091	    0.00000E+00	    0.00000E+00	    0.00000E+00	  
306.7	         3.8923	              5	         3.8923	    0.00000E+00	    0.00000E+00	    0.00000E+00	  
306.5	        4.09079	        4.09079	        4.09079	    0.00000E+00	    0.00000E+00	    0.00000E+00	  
306.2	        4.09079	              5	        4.09079	    0.00000E+00	    0.00000E+00	    0.00000E+00	  
306  	         3.5816	         3.5816	         3.5816	    0.00000E+00	    0.00000E+00	    0.00000E+00	  
305.7	        2.80487	              5	        2.80487	    0.00000E+00	    0.00000E+00	    0.00000E+00	  
305.5	        2.11444	        2.11444	        2.11444	    0.00000E+00	    0.00000E+00	    0.00000E+00	  
305.2	        1.67429	              5	        1.67429	    0.00000E+00	    0.00000E+00	    0.00000E+00	  
305  	        1.41538	        1.41538	        1.41538	    0.00000E+00	    0.00000E+00	    0.00000E+00	  
304.7	        1.59662	              5	        1.59662	    0.00000E+00	    0.00000E+00	    0.00000E+00	  
304.5	        1.63114	        1.63114	        1.63114	    0.00000E+00	    0.00000E+00	    0.00000E+00	  
304.2	        1.98498	              5	        1.98498	    0.00000E+00	    0.00000E+00	    0.00000E+00	  
304  	        2.14033	        2.14033	        2.14033	    0.00000E+00	    0.00000E+00	    0.00000E+00	  
303.7	        2.39061	              5	        2.39061	    0.00000E+00	    0.00000E+00	    0.00000E+00	  
303.5	        2.60637	        2.60637	        2.60637	    0.00000E+00	    0.00000E+00	    0.00000E+00	  
303.2	        2.86528	              5	        2.86528	    0.00000E+00	    0.00000E+00	    0.00000E+00	  
303  	        3.11556	        3.11556	        3.11556	    0.00000E+00	    0.00000E+00	    0.00000E+00	  
302.7	        3.25365	              5	        3.25365	    0.00000E+00	    0.00000E+00	    0.00000E+00	  
302.5	        3.31406	        3.31406	        3.31406	    0.00000E+00	    0.00000E+00	    0.00000E+00	  
302.2	        3.45215	              5	        3.45215	    0.00000E+00	    0.00000E+00	    0.00000E+00	  
302  	        3.53845	        3.53845	        3.53845	    0.00000E+00	    0.00000E+00	    0.00000E+00	  
301.7	        3.80599	              5	        3.80599	    0.00000E+00	    0.00000E+00	    0.00000E+00	  
301.5	        3.90093	        3.90093	        3.90093	    0.00000E+00	    0.00000E+00	    0.00000E+00	  
301.2	        4.03901	              5	        4.03901	    0.00000E+00	    0.00000E+00	    0.00000E+00	  
301  	        4.49642	        4.49642	        4.49642	    0.00000E+00	    0.00000E+00	    0.00000E+00	  
300.7	        4.86753	              5	        4.86753	    0.00000E+00	    0.00000E+00	    0.00000E+00	  
300.5	        5.10055	        5.10055	        5.10055	    0.00000E+00	    0.00000E+00	    0.00000E+00	  
300.2	        5.16959	              5	        5.16959	    0.00000E+00	    0.00000E+00	    0.00000E+00	  
300  	        5.17822	        5.17822	        5.17822	    0.00000E+00	    0.00000E+00	    0.00000E+00	  
299.7	        5.40261	              5	        5.40261	    0.00000E+00	    0.00000E+00	    0.00000E+00	  
299.5	        5.47165	        5.47165	        5.47165	    0.00000E+00	    0.00000E+00	    0.00000E+00	  
299.2	        5.60111	              5	        5.60111	    0.00000E+00	    0.00000E+00	    0.00000E+00	  
299  	         6.1103	         6.1103	         6.1103	    0.00000E+00	    0.00000E+00	    0.00000E+00	  
298.7	        6.61086	              5	        6.61086	    0.00000E+00	    0.00000E+00	    0.00000E+00	  
298.5	         7.3876	         7.3876	         7.3876	    0.00000E+00	    0.00000E+00	    0.00000E+00	  
298.2	        7.74144	              5	        7.74144	    0.00000E+00	    0.00000E+00	    0.00000E+00	  
298  	        8.19022	        8.19022	        8.19022	    0.00000E+00	    0.00000E+00	    0.00000E+00	  
297.7	        8.87202	              5	        8.87202	    0.00000E+00	    0.00000E+00	    0.00000E+00	  
297.5	        9.11367	        9.11367	        9.11367	    0.00000E+00	    0.00000E+00	    0.00000E+00	  
297.2	        9.25175	              5	        9.25175	    0.00000E+00	    0.00000E+00	    0.00000E+00	  
297  	        9.24312	        9.24312	        9.24312	    0.00000E+00	    0.00000E+00	    0.00000E+00	  
296.7	        9.50204	              5	        9.50204	    0.00000E+00	    0.00000E+00	    0.00000E+00	  
296.5	       10.08027	       10.08027	       10.08027	    0.00000E+00	    0.00000E+00	    0.00000E+00	  
296.2	       10.46001	              5	       10.46001	    0.00000E+00	    0.00000E+00	    0.00000E+00	  
296  	        10.9692	        10.9692	        10.9692	    0.00000E+00	    0.00000E+00	    0.00000E+00	  
295.7	       11.58195	              5	       11.58195	    0.00000E+00	    0.00000E+00	    0.00000E+00	  
295.5	       12.46225	       12.46225	       12.46225	    0.00000E+00	    0.00000E+00	    0.00000E+00	  
295.2	       13.50653	              5	       13.50653	    0.00000E+00	    0.00000E+00	    0.00000E+00	  
295  	       14.05024	       14.05024	       14.05024	    0.00000E+00	    0.00000E+00	    0.00000E+00	  
294.7	       14.69752	              5	       14.69752	    0.00000E+00	    0.00000E+00	    0.00000E+00	  
294.5	       15.41384	       15.41384	       15.41384	    0.00000E+00	    0.00000E+00	    0.00000E+00	  
294.2	       16.43222	              5	       16.43222	    0.00000E+00	    0.00000E+00	    0.00000E+00	  
294  	       17.26937	       17.26937	       17.26937	    0.00000E+00	    0.00000E+00	    0.00000E+00	  
293.7	       18.15829	              5	       18.15829	    0.00000E+00	    0.00000E+00	    0.00000E+00	  
293.5	       19.15079	       19.15079	       19.15079	    0.00000E+00	    0.00000E+00	    0.00000E+00	  
293.2	       20.34178	              5	       20.34178	    0.00000E+00	    0.00000E+00	    0.00000E+00	  
293  	       21.02358	       21.02358	       21.02358	    0.00000E+00	    0.00000E+00	    0.00000E+00	  
292.7	       22.05059	              5	       22.05059	    0.00000E+00	    0.00000E+00	    0.00000E+00	  
292.5	       22.48211	       22.48211	       22.48211	    0.00000E+00	    0.00000E+00	    0.00000E+00	  
292.2	       22.85321	              5	       22.85321	    0.00000E+00	    0.00000E+00	    0.00000E+00	  
292  	       23.15528	       23.15528	       23.15528	    0.00000E+00	    0.00000E+00	    0.00000E+00	  
291.7	       23.24158	              5	       23.24158	    0.00000E+00	    0.00000E+00	    0.00000E+00	  
291.5	       23.20706	       23.20706	       23.20706	    0.00000E+00	    0.00000E+00	    0.00000E+00	  
291.2	       22.67198	              5	       22.67198	    0.00000E+00	    0.00000E+00	    0.00000E+00	  
291  	       22.05059	       22.05059	       22.05059	    0.00000E+00	    0.00000E+00	    0.00000E+00	  
290.7	       21.17029	              5	       21.17029	    0.00000E+00	    0.00000E+00	    0.00000E+00	  
290.5	       20.15191	       20.15191	       20.15191	    0.00000E+00	    0.00000E+00	    0.00000E+00	  
290.2	        19.1249	              5	        19.1249	    0.00000E+00	    0.00000E+00	    0.00000E+00	  
290  	       17.72678	       17.72678	       17.72678	    0.00000E+00	    0.00000E+00	    0.00000E+00	  
289.7	       16.81196	              5	       16.81196	    0.00000E+00	    0.00000E+00	    0.00000E+00	  
289.5	       15.89714	       15.89714	       15.89714	    0.00000E+00	    0.00000E+00	    0.00000E+00	  
289.2	       14.99095	              5	       14.99095	    0.00000E+00	    0.00000E+00	    0.00000E+00	  
289  	        15.0341	        15.0341	        15.0341	    0.00000E+00	    0.00000E+00	    0.00000E+00	  
288.7	       14.65437	              5	       14.65437	    0.00000E+00	    0.00000E+00	    0.00000E+00	  
288.5	       14.70615	       14.70615	       14.70615	    0.00000E+00	    0.00000E+00	    0.00000E+00	  
288.2	        14.5508	              5	        14.5508	    0.00000E+00	    0.00000E+00	    0.00000E+00	  
288  	       14.61984	       14.61984	       14.61984	    0.00000E+00	    0.00000E+00	    0.00000E+00	  
287.7	       14.25737	              5	       14.25737	    0.00000E+00	    0.00000E+00	    0.00000E+00	  
287.5	       14.23148	       14.23148	       14.23148	    0.00000E+00	    0.00000E+00	    0.00000E+00	  
287.2	       14.11928	              5	       14.11928	    0.00000E+00	    0.00000E+00	    0.00000E+00	  
287  	       13.79996	       13.79996	       13.79996	    0.00000E+00	    0.00000E+00	    0.00000E+00	  
286.7	       13.62735	              5	       13.62735	    0.00000E+00	    0.00000E+00	    0.00000E+00	  
286.5	       13.95531	       13.95531	       13.95531	    0.00000E+00	    0.00000E+00	    0.00000E+00	  
286.2	       13.68776	              5	       13.68776	    0.00000E+00	    0.00000E+00	    0.00000E+00	  
286  	       13.43748	       13.43748	       13.43748	    0.00000E+00	    0.00000E+00	    0.00000E+00	  
285.7	       13.19583	              5	       13.19583	    0.00000E+00	    0.00000E+00	    0.00000E+00	  
285.5	       12.91103	       12.91103	       12.91103	    0.00000E+00	    0.00000E+00	    0.00000E+00	  
285.2	       13.00596	              5	       13.00596	    0.00000E+00	    0.00000E+00	    0.00000E+00	  
285  	       13.46337	       13.46337	       13.46337	    0.00000E+00	    0.00000E+00	    0.00000E+00	  
284.7	       13.26488	              5	       13.26488	    0.00000E+00	    0.00000E+00	    0.00000E+00	  
284.5	       13.48927	       13.48927	       13.48927	    0.00000E+00	    0.00000E+00	    0.00000E+00	  
284.2	       13.27351	              5	       13.27351	    0.00000E+00	    0.00000E+00	    0.00000E+00	  
284  	       13.02323	       13.02323	       13.02323	    0.00000E+00	    0.00000E+00	    0.00000E+00	  
283.7	        12.6176	              5	        12.6176	    0.00000E+00	    0.00000E+00	    0.00000E+00	  
283.5	        12.3328	        12.3328	        12.3328	    0.00000E+00	    0.00000E+00	    0.00000E+00	  
283.2	       11.70278	              5	       11.70278	    0.00000E+00	    0.00000E+00	    0.00000E+00	  
283  	       11.23674	       11.23674	       11.23674	    0.00000E+00	    0.00000E+00	    0.00000E+00	  
282.7	       10.92605	              5	       10.92605	    0.00000E+00	    0.00000E+00	    0.00000E+00	  
282.5	       10.92605	       10.92605	       10.92605	    0.00000E+00	    0.00000E+00	    0.00000E+00	  
282.2	       11.20222	              5	       11.20222	    0.00000E+00	    0.00000E+00	    0.00000E+00	  
282  	       11.58195	       11.58195	       11.58195	    0.00000E+00	    0.00000E+00	    0.00000E+00	  
281.7	       11.21085	              5	       11.21085	    0.00000E+00	    0.00000E+00	    0.00000E+00	  
281.5	       10.44275	       10.44275	       10.44275	    0.00000E+00	    0.00000E+00	    0.00000E+00	  
281.2	       10.42548	              5	       10.42548	    0.00000E+00	    0.00000E+00	    0.00000E+00	  
281  	       10.51179	       10.51179	       10.51179	    0.00000E+00	    0.00000E+00	    0.00000E+00	  
280.7	        9.73506	              5	        9.73506	    0.00000E+00	    0.00000E+00	    0.00000E+00	  
280.5	        9.54519	        9.54519	        9.54519	    0.00000E+00	    0.00000E+00	    0.00000E+00	  
280.2	        9.53656	              5	        9.53656	    0.00000E+00	    0.00000E+00	    0.00000E+00	  
280  	        9.62286	        9.62286	        9.62286	    0.00000E+00	    0.00000E+00	    0.00000E+00	  
279.7	        9.76095	              5	        9.76095	    0.00000E+00	    0.00000E+00	    0.00000E+00	  
279.5	        9.56245	        9.56245	        9.56245	    0.00000E+00	    0.00000E+00	    0.00000E+00	  
279.2	        8.75982	              5	        8.75982	    0.00000E+00	    0.00000E+00	    0.00000E+00	  
279  	        7.96583	        7.96583	        7.96583	    0.00000E+00	    0.00000E+00	    0.00000E+00	  
278.7	         7.8709	              5	         7.8709	    0.00000E+00	    0.00000E+00	    0.00000E+00	  
278.5	        7.75007	        7.75007	        7.75007	    0.00000E+00	    0.00000E+00	    0.00000E+00	  
278.2	        6.85251	              5	        6.85251	    0.00000E+00	    0.00000E+00	    0.00000E+00	  
278  	        6.72306	        6.72306	        6.72306	    0.00000E+00	    0.00000E+00	    0.00000E+00	  
277.7	        7.15458	              5	        7.15458	    0.00000E+00	    0.00000E+00	    0.00000E+00	  
277.5	         6.8784	         6.8784	         6.8784	    0.00000E+00	    0.00000E+00	    0.00000E+00	  
277.2	        6.69717	              5	        6.69717	    0.00000E+00	    0.00000E+00	    0.00000E+00	  
277  	        6.89566	        6.89566	        6.89566	    0.00000E+00	    0.00000E+00	    0.00000E+00	  
276.7	        6.80073	              5	        6.80073	    0.00000E+00	    0.00000E+00	    0.00000E+00	  
276.5	        6.96471	        6.96471	        6.96471	    0.00000E+00	    0.00000E+00	    0.00000E+00	  
276.2	        7.11142	              5	        7.11142	    0.00000E+00	    0.00000E+00	    0.00000E+00	  
276  	        7.40486	        7.40486	        7.40486	    0.00000E+00	    0.00000E+00	    0.00000E+00	  
275.7	        7.46527	              5	        7.46527	    0.00000E+00	    0.00000E+00	    0.00000E+00	  
275.5	        7.65514	        7.65514	        7.65514	    0.00000E+00	    0.00000E+00	    0.00000E+00	  
275.2	         8.0435	              5	         8.0435	    0.00000E+00	    0.00000E+00	    0.00000E+00	  
275  	         8.0435	         8.0435	         8.0435	    0.00000E+00	    0.00000E+00	    0.00000E+00	  
274.7	        8.54406	              5	        8.54406	    0.00000E+00	    0.00000E+00	    0.00000E+00	  
274.5	        8.54406	        8.54406	        8.54406	    0.00000E+00	    0.00000E+00	    0.00000E+00	  
274.2	        8.46639	              5	        8.46639	    0.00000E+00	    0.00000E+00	    0.00000E+00	  
274  	        8.42324	        8.42324	        8.42324	    0.00000E+00	    0.00000E+00	    0.00000E+00	  
273.7	        7.63788	              5	        7.63788	    0.00000E+00	    0.00000E+00	    0.00000E+00	  
273.5	        7.65514	        7.65514	        7.65514	    0.00000E+00	    0.00000E+00	    0.00000E+00	  
273.2	         7.3617	              5	         7.3617	    0.00000E+00	    0.00000E+00	    0.00000E+00	  
273  	        7.24088	        7.24088	        7.24088	    0.00000E+00	    0.00000E+00	    0.00000E+00	  
272.7	        7.09416	              5	        7.09416	    0.00000E+00	    0.00000E+00	    0.00000E+00	  
272.5	        6.86114	        6.86114	        6.86114	    0.00000E+00	    0.00000E+00	    0.00000E+00	  
272.2	        7.19773	              5	        7.19773	    0.00000E+00	    0.00000E+00	    0.00000E+00	  
272  	        7.42212	        7.42212	        7.42212	    0.00000E+00	    0.00000E+00	    0.00000E+00	  
271.7	        7.31855	              5	        7.31855	    0.00000E+00	    0.00000E+00	    0.00000E+00	  
271.5	        7.21499	        7.21499	        7.21499	    0.00000E+00	    0.00000E+00	    0.00000E+00	  
271.2	        6.38647	              5	        6.38647	    0.00000E+00	    0.00000E+00	    0.00000E+00	  
271  	        6.41236	        6.41236	        6.41236	    0.00000E+00	    0.00000E+00	    0.00000E+00	  
270.7	         5.9118	              5	         5.9118	    0.00000E+00	    0.00000E+00	    0.00000E+00	  
270.5	        5.73056	        5.73056	        5.73056	    0.00000E+00	    0.00000E+00	    0.00000E+00	  
270.2	        5.29905	              5	        5.29905	    0.00000E+00	    0.00000E+00	    0.00000E+00	  
270  	        4.95383	        4.95383	        4.95383	    0.00000E+00	    0.00000E+00	    0.00000E+00	  
269.7	         5.1437	              5	         5.1437	    0.00000E+00	    0.00000E+00	    0.00000E+00	  
269.5	        5.01424	        5.01424	        5.01424	    0.00000E+00	    0.00000E+00	    0.00000E+00	  
269.2	        3.83188	              5	        3.83188	    0.00000E+00	    0.00000E+00	    0.00000E+00	  
269  	         3.4953	         3.4953	         3.4953	    0.00000E+00	    0.00000E+00	    0.00000E+00	  
268.7	        3.45215	              5	        3.45215	    0.00000E+00	    0.00000E+00	    0.00000E+00	  
268.5	        2.87391	        2.87391	        2.87391	    0.00000E+00	    0.00000E+00	    0.00000E+00	  
268.2	        2.73583	              5	        2.73583	    0.00000E+00	    0.00000E+00	    0.00000E+00	  
268  	        2.47692	        2.47692	        2.47692	    0.00000E+00	    0.00000E+00	    0.00000E+00	  
267.7	         2.7272	              5	         2.7272	    0.00000E+00	    0.00000E+00	    0.00000E+00	  
267.5	        3.62475	        3.62475	        3.62475	    0.00000E+00	    0.00000E+00	    0.00000E+00	  
267.2	        4.72081	              5	        4.72081	    0.00000E+00	    0.00000E+00	    0.00000E+00	  
267  	        5.46302	        5.46302	        5.46302	    0.00000E+00	    0.00000E+00	    0.00000E+00	  
266.7	         6.1966	              5	         6.1966	    0.00000E+00	    0.00000E+00	    0.00000E+00	  
266.5	        7.21499	        7.21499	        7.21499	    0.00000E+00	    0.00000E+00	    0.00000E+00	  
266.2	        7.80185	              5	        7.80185	    0.00000E+00	    0.00000E+00	    0.00000E+00	  
266  	        7.74144	        7.74144	        7.74144	    0.00000E+00	    0.00000E+00	    0.00000E+00	  
265.7	        8.16433	              5	        8.16433	    0.00000E+00	    0.00000E+00	    0.00000E+00	  
265.5	        7.92268	        7.92268	        7.92268	    0.00000E+00	    0.00000E+00	    0.00000E+00	  
265.2	        8.19885	              5	        8.19885	    0.00000E+00	    0.00000E+00	    0.00000E+00	  
265  	        8.32831	        8.32831	        8.32831	    0.00000E+00	    0.00000E+00	    0.00000E+00	  
264.7	        7.78459	              5	        7.78459	    0.00000E+00	    0.00000E+00	    0.00000E+00	  
264.5	        7.60335	        7.60335	        7.60335	    0.00000E+00	    0.00000E+00	    0.00000E+00	  
264.2	        7.48253	              5	        7.48253	    0.00000E+00	    0.00000E+00	    0.00000E+00	  
264  	        6.93882	        6.93882	        6.93882	    0.00000E+00	    0.00000E+00	    0.00000E+00	  
263.7	        6.29154	              5	        6.29154	    0.00000E+00	    0.00000E+00	    0.00000E+00	  
263.5	        6.21387	        6.21387	        6.21387	    0.00000E+00	    0.00000E+00	    0.00000E+00	  
263.2	         5.5407	              5	         5.5407	    0.00000E+00	    0.00000E+00	    0.00000E+00	  
263  	        5.04877	        5.04877	        5.04877	    0.00000E+00	    0.00000E+00	    0.00000E+00	  
262.7	         4.9452	              5	         4.9452	    0.00000E+00	    0.00000E+00	    0.00000E+00	  
262.5	        4.53957	        4.53957	        4.53957	    0.00000E+00	    0.00000E+00	    0.00000E+00	  
262.2	         3.7801	              5	         3.7801	    0.00000E+00	    0.00000E+00	    0.00000E+00	  
262  	        3.91819	        3.91819	        3.91819	    0.00000E+00	    0.00000E+00	    0.00000E+00	  
261.7	        4.43601	              5	        4.43601	    0.00000E+00	    0.00000E+00	    0.00000E+00	  
261.5	        5.33357	        5.33357	        5.33357	    0.00000E+00	    0.00000E+00	    0.00000E+00	  
261.2	        5.86865	              5	        5.86865	    0.00000E+00	    0.00000E+00	    0.00000E+00	  
261  	        6.74032	        6.74032	        6.74032	    0.00000E+00	    0.00000E+00	    0.00000E+00	  
260.7	        7.13731	              5	        7.13731	    0.00000E+00	    0.00000E+00	    0.00000E+00	  
260.5	        7.82774	        7.82774	        7.82774	    0.00000E+00	    0.00000E+00	    0.00000E+00	  
260.2	          8.639	              5	          8.639	    0.00000E+00	    0.00000E+00	    0.00000E+00	  
260  	        9.38984	        9.38984	        9.38984	    0.00000E+00	    0.00000E+00	    0.00000E+00	  
259.7	        9.82999	              5	        9.82999	    0.00000E+00	    0.00000E+00	    0.00000E+00	  
259.5	       10.51179	       10.51179	       10.51179	    0.00000E+00	    0.00000E+00	    0.00000E+00	  
259.2	       11.15044	              5	       11.15044	    0.00000E+00	    0.00000E+00	    0.00000E+00	  
259  	       11.37483	       11.37483	       11.37483	    0.00000E+00	    0.00000E+00	    0.00000E+00	  
258.7	       10.64987	              5	       10.64987	    0.00000E+00	    0.00000E+00	    0.00000E+00	  
258.5	        9.83862	        9.83862	        9.83862	    0.00000E+00	    0.00000E+00	    0.00000E+00	  
258.2	        8.82887	              5	        8.82887	    0.00000E+00	    0.00000E+00	    0.00000E+00	  
258  	         7.7587	         7.7587	         7.7587	    0.00000E+00	    0.00000E+00	    0.00000E+00	  
257.7	        6.81799	              5	        6.81799	    0.00000E+00	    0.00000E+00	    0.00000E+00	  
257.5	        5.97221	        5.97221	        5.97221	    0.00000E+00	    0.00000E+00	    0.00000E+00	  
257.2	        5.55796	              5	        5.55796	    0.00000E+00	    0.00000E+00	    0.00000E+00	  
257  	        5.11781	        5.11781	        5.11781	    0.00000E+00	    0.00000E+00	    0.00000E+00	  
256.7	        4.24614	              5	        4.24614	    0.00000E+00	    0.00000E+00	    0.00000E+00	  
256.5	          3.409	          3.409	          3.409	    0.00000E+00	    0.00000E+00	    0.00000E+00	  
256.2	        2.73583	              5	        2.73583	    0.00000E+00	    0.00000E+00	    0.00000E+00	  
256  	        1.78649	        1.78649	        1.78649	    0.00000E+00	    0.00000E+00	    0.00000E+00	  
255.7	        0.81125	              5	        0.81125	    0.00000E+00	    0.00000E+00	    0.00000E+00	  
255.5	       -0.21576	       -0.21576	       -0.21576	    0.00000E+00	    0.00000E+00	    0.00000E+00	  
255.2	       -1.49305	              5	       -1.49305	    0.00000E+00	    0.00000E+00	    0.00000E+00	  
255  	       -2.51144	       -2.51144	       -2.51144	    0.00000E+00	    0.00000E+00	    0.00000E+00	  
254.7	       -3.39173	              5	       -3.39173	    0.00000E+00	    0.00000E+00	    0.00000E+00	  
254.5	       -4.78122	       -4.78122	       -4.78122	    0.00000E+00	    0.00000E+00	    0.00000E+00	  
254.2	       -6.54182	              5	       -6.54182	    0.00000E+00	    0.00000E+00	    0.00000E+00	  
254  	       -7.68103	       -7.68103	       -7.68103	    0.00000E+00	    0.00000E+00	    0.00000E+00	  
253.7	       -8.58722	              5	       -8.58722	    0.00000E+00	    0.00000E+00	    0.00000E+00	  
253.5	       -9.87314	       -9.87314	       -9.87314	    0.00000E+00	    0.00000E+00	    0.00000E+00	  
253.2	      -11.38346	              5	      -11.38346	    0.00000E+00	    0.00000E+00	    0.00000E+00	  
253  	      -13.22172	      -13.22172	      -13.22172	    0.00000E+00	    0.00000E+00	    0.00000E+00	  
252.7	      -15.52603	              5	      -15.52603	    0.00000E+00	    0.00000E+00	    0.00000E+00	  
252.5	      -17.90801	      -17.90801	      -17.90801	    0.00000E+00	    0.00000E+00	    0.00000E+00	  
252.2	      -20.87686	              5	      -20.87686	    0.00000E+00	    0.00000E+00	    0.00000E+00	  
252  	      -24.48435	      -24.48435	      -24.48435	    0.00000E+00	    0.00000E+00	    0.00000E+00	  
251.7	      -28.82543	              5	      -28.82543	    0.00000E+00	    0.00000E+00	    0.00000E+00	  
251.5	      -33.30459	      -33.30459	      -33.30459	    0.00000E+00	    0.00000E+00	    0.00000E+00	  
251.2	      -37.92184	              5	      -37.92184	    0.00000E+00	    0.00000E+00	    0.00000E+00	  
251  	      -43.26404	      -43.26404	      -43.26404	    0.00000E+00	    0.00000E+00	    0.00000E+00	  
250.7	      -49.08953	              5	      -49.08953	    0.00000E+00	    0.00000E+00	    0.00000E+00	  
250.5	      -55.38107	      -55.38107	      -55.38107	    0.00000E+00	    0.00000E+00	    0.00000E+00	  
250.2	      -62.15591	              5	      -62.15591	    0.00000E+00	    0.00000E+00	    0.00000E+00	  
250  	      -69.40542	      -69.40542	      -69.40542	    0.00000E+00	    0.00000E+00	    0.00000E+00	  
