Generic               	CD0004115000
Experiment            	Pulmonary surfactant-associated protein B residues 259-280
Description           	Protein name : Pulmonary surfactant-associated protein B residues 259-280. Deposited into the PCDDB by Anna Kuznetsova
Concentration (mg/ml) 	0.101
Temperature           	30
Machine               	Aviv
Pathlength (cm)       	0.1
Accumulations         	60
High Wavelength       	260
Low Wavelength        	180
Interval (nm)         	1
Dwell time (s)        	No data provided
Date                  	2009-02-11T00:00:00
M.R.W. (Da)           	120.5
Smoothing window      	0
PDB                   	No data provided
Swissprot             	P07988[201-279]
Code                  	No citation information currently associated with this entry.
260  	   -115.0871651	          262.7	   -115.0871651	    0.00000E+00	    0.00000E+00	    0.00000E+00	  
259  	   -171.4499559	          264.9	   -171.4499559	    0.00000E+00	    0.00000E+00	    0.00000E+00	  
258  	   -226.9368681	          266.9	   -226.9368681	    0.00000E+00	    0.00000E+00	    0.00000E+00	  
257  	   -336.5589312	          269.1	   -336.5589312	    0.00000E+00	    0.00000E+00	    0.00000E+00	  
256  	   -262.1087677	          270.7	   -262.1087677	    0.00000E+00	    0.00000E+00	    0.00000E+00	  
255  	   -259.0116887	          272.2	   -259.0116887	    0.00000E+00	    0.00000E+00	    0.00000E+00	  
254  	   -312.7912198	          273.4	   -312.7912198	    0.00000E+00	    0.00000E+00	    0.00000E+00	  
253  	   -268.3634189	          274.6	   -268.3634189	    0.00000E+00	    0.00000E+00	    0.00000E+00	  
252  	   -434.5490013	          275.6	   -434.5490013	    0.00000E+00	    0.00000E+00	    0.00000E+00	  
251  	   -323.3832821	          277.0	   -323.3832821	    0.00000E+00	    0.00000E+00	    0.00000E+00	  
250  	   -388.5119842	          278.2	   -388.5119842	    0.00000E+00	    0.00000E+00	    0.00000E+00	  
249  	    -287.128741	          279.6	    -287.128741	    0.00000E+00	    0.00000E+00	    0.00000E+00	  
248  	   -521.9766425	          281.0	   -521.9766425	    0.00000E+00	    0.00000E+00	    0.00000E+00	  
247  	   -615.5949097	          282.3	   -615.5949097	    0.00000E+00	    0.00000E+00	    0.00000E+00	  
246  	   -929.8965162	          283.7	   -929.8965162	    0.00000E+00	    0.00000E+00	    0.00000E+00	  
245  	    -969.487133	          285.3	    -969.487133	    0.00000E+00	    0.00000E+00	    0.00000E+00	  
244  	   -1216.549658	          286.6	   -1216.549658	    0.00000E+00	    0.00000E+00	    0.00000E+00	  
243  	   -1423.583653	          287.8	   -1423.583653	    0.00000E+00	    0.00000E+00	    0.00000E+00	  
242  	   -1686.892004	          289.5	   -1686.892004	    0.00000E+00	    0.00000E+00	    0.00000E+00	  
241  	    -2079.44516	          291.1	    -2079.44516	    0.00000E+00	    0.00000E+00	    0.00000E+00	  
240  	   -2856.735823	          292.7	   -2856.735823	    0.00000E+00	    0.00000E+00	    0.00000E+00	  
239  	   -3134.373936	          294.4	   -3134.373936	    0.00000E+00	    0.00000E+00	    0.00000E+00	  
238  	   -3945.358341	          296.4	   -3945.358341	    0.00000E+00	    0.00000E+00	    0.00000E+00	  
237  	   -4676.522961	          298.8	   -4676.522961	    0.00000E+00	    0.00000E+00	    0.00000E+00	  
236  	   -5456.526594	          300.8	   -5456.526594	    0.00000E+00	    0.00000E+00	    0.00000E+00	  
235  	   -6093.781466	          302.9	   -6093.781466	    0.00000E+00	    0.00000E+00	    0.00000E+00	  
234  	   -7030.740276	          305.1	   -7030.740276	    0.00000E+00	    0.00000E+00	    0.00000E+00	  
233  	   -7951.651956	          307.5	   -7951.651956	    0.00000E+00	    0.00000E+00	    0.00000E+00	  
232  	   -9097.182315	          309.4	   -9097.182315	    0.00000E+00	    0.00000E+00	    0.00000E+00	  
231  	   -9750.428084	          311.7	   -9750.428084	    0.00000E+00	    0.00000E+00	    0.00000E+00	  
230  	   -11090.38949	          313.9	   -11090.38949	    0.00000E+00	    0.00000E+00	    0.00000E+00	  
229  	   -11864.06017	          316.6	   -11864.06017	    0.00000E+00	    0.00000E+00	    0.00000E+00	  
228  	   -12722.45139	          319.2	   -12722.45139	    0.00000E+00	    0.00000E+00	    0.00000E+00	  
227  	   -13569.80332	          321.9	   -13569.80332	    0.00000E+00	    0.00000E+00	    0.00000E+00	  
226  	   -14669.07092	          324.7	   -14669.07092	    0.00000E+00	    0.00000E+00	    0.00000E+00	  
225  	   -15111.54389	          326.8	   -15111.54389	    0.00000E+00	    0.00000E+00	    0.00000E+00	  
224  	   -15732.49253	          329.4	   -15732.49253	    0.00000E+00	    0.00000E+00	    0.00000E+00	  
223  	    -15743.1321	          331.5	    -15743.1321	    0.00000E+00	    0.00000E+00	    0.00000E+00	  
222  	   -16147.16882	          333.7	   -16147.16882	    0.00000E+00	    0.00000E+00	    0.00000E+00	  
221  	   -16519.21854	          335.7	   -16519.21854	    0.00000E+00	    0.00000E+00	    0.00000E+00	  
220  	    -16691.2207	          338.4	    -16691.2207	    0.00000E+00	    0.00000E+00	    0.00000E+00	  
219  	   -16873.42469	          340.7	   -16873.42469	    0.00000E+00	    0.00000E+00	    0.00000E+00	  
218  	   -16773.93124	          343.4	   -16773.93124	    0.00000E+00	    0.00000E+00	    0.00000E+00	  
217  	   -16764.77496	          346.6	   -16764.77496	    0.00000E+00	    0.00000E+00	    0.00000E+00	  
216  	   -17414.95758	          349.4	   -17414.95758	    0.00000E+00	    0.00000E+00	    0.00000E+00	  
215  	   -17267.13428	          352.0	   -17267.13428	    0.00000E+00	    0.00000E+00	    0.00000E+00	  
214  	   -17631.24871	          355.3	   -17631.24871	    0.00000E+00	    0.00000E+00	    0.00000E+00	  
213  	   -18051.31454	          358.4	   -18051.31454	    0.00000E+00	    0.00000E+00	    0.00000E+00	  
212  	   -18514.76636	          362.2	   -18514.76636	    0.00000E+00	    0.00000E+00	    0.00000E+00	  
211  	    -19153.0005	          365.9	    -19153.0005	    0.00000E+00	    0.00000E+00	    0.00000E+00	  
210  	   -19784.82605	          370.3	   -19784.82605	    0.00000E+00	    0.00000E+00	    0.00000E+00	  
209  	   -20912.35954	          375.8	   -20912.35954	    0.00000E+00	    0.00000E+00	    0.00000E+00	  
208  	   -21240.33219	          381.3	   -21240.33219	    0.00000E+00	    0.00000E+00	    0.00000E+00	  
207  	   -20864.38802	          387.2	   -20864.38802	    0.00000E+00	    0.00000E+00	    0.00000E+00	  
206  	   -19777.61498	          394.4	   -19777.61498	    0.00000E+00	    0.00000E+00	    0.00000E+00	  
205  	   -18143.06088	          401.5	   -18143.06088	    0.00000E+00	    0.00000E+00	    0.00000E+00	  
204  	   -15582.32721	          409.2	   -15582.32721	    0.00000E+00	    0.00000E+00	    0.00000E+00	  
203  	   -12451.93116	          417.6	   -12451.93116	    0.00000E+00	    0.00000E+00	    0.00000E+00	  
202  	   -8735.146481	          426.7	   -8735.146481	    0.00000E+00	    0.00000E+00	    0.00000E+00	  
201  	   -4991.110112	          438.5	   -4991.110112	    0.00000E+00	    0.00000E+00	    0.00000E+00	  
200  	    481.0368244	          452.6	    481.0368244	    0.00000E+00	    0.00000E+00	    0.00000E+00	  
199  	    6176.018549	          469.7	    6176.018549	    0.00000E+00	    0.00000E+00	    0.00000E+00	  
198  	    11921.93629	          490.9	    11921.93629	    0.00000E+00	    0.00000E+00	    0.00000E+00	  
197  	    17928.71236	          518.2	    17928.71236	    0.00000E+00	    0.00000E+00	    0.00000E+00	  
196  	    23614.20644	          551.6	    23614.20644	    0.00000E+00	    0.00000E+00	    0.00000E+00	  
195  	    27483.77797	          594.0	    27483.77797	    0.00000E+00	    0.00000E+00	    0.00000E+00	  
194  	    29725.92202	          648.8	    29725.92202	    0.00000E+00	    0.00000E+00	    0.00000E+00	  
193  	    35020.53277	          721.1	    35020.53277	    0.00000E+00	    0.00000E+00	    0.00000E+00	  
192  	    34932.27722	          822.6	    34932.27722	    0.00000E+00	    0.00000E+00	    0.00000E+00	  
191  	    30583.34014	          952.9	    30583.34014	    0.00000E+00	    0.00000E+00	    0.00000E+00	  
190  	    -2937.47946	         1056.3	    -2937.47946	    0.00000E+00	    0.00000E+00	    0.00000E+00	  
189  	   -7160.476994	         1103.9	   -7160.476994	    0.00000E+00	    0.00000E+00	    0.00000E+00	  
188  	    -33272.7886	         1123.4	    -33272.7886	    0.00000E+00	    0.00000E+00	    0.00000E+00	  
187  	   -10946.22528	         1133.1	   -10946.22528	    0.00000E+00	    0.00000E+00	    0.00000E+00	  
186  	   -10245.24526	         1137.2	   -10245.24526	    0.00000E+00	    0.00000E+00	    0.00000E+00	  
185  	    1419.219602	         1139.1	    1419.219602	    0.00000E+00	    0.00000E+00	    0.00000E+00	  
184  	    4475.058999	         1141.7	    4475.058999	    0.00000E+00	    0.00000E+00	    0.00000E+00	  
183  	    8439.346667	         1141.6	    8439.346667	    0.00000E+00	    0.00000E+00	    0.00000E+00	  
182  	    -30723.3778	         1141.9	    -30723.3778	    0.00000E+00	    0.00000E+00	    0.00000E+00	  
181  	    596.8334009	         1140.6	    596.8334009	    0.00000E+00	    0.00000E+00	    0.00000E+00	  
180  	   -3735.605335	         1140.7	   -3735.605335	    0.00000E+00	    0.00000E+00	    0.00000E+00	  
