Generic               	CD0004116000
Experiment            	Pulmonary surfactant-associated protein B residues 259-280
Description           	Protein name : Pulmonary surfactant-associated protein B residues 259-280. Deposited into the PCDDB by Anna Kuznetsova
Concentration (mg/ml) 	0.101
Temperature           	45
Machine               	Aviv
Pathlength (cm)       	0.1
Accumulations         	60
High Wavelength       	260
Low Wavelength        	180
Interval (nm)         	1
Dwell time (s)        	No data provided
Date                  	2009-02-11T00:00:00
M.R.W. (Da)           	120.5
Smoothing window      	0
PDB                   	No data provided
Swissprot             	P07988[201-279]
Code                  	No citation information currently associated with this entry.
260  	   -192.9417105	          264.6	   -192.9417105	    0.00000E+00	    0.00000E+00	    0.00000E+00	  
259  	    -422.339581	          266.0	    -422.339581	    0.00000E+00	    0.00000E+00	    0.00000E+00	  
258  	   -413.4288401	          267.5	   -413.4288401	    0.00000E+00	    0.00000E+00	    0.00000E+00	  
257  	   -348.5452597	          269.3	   -348.5452597	    0.00000E+00	    0.00000E+00	    0.00000E+00	  
256  	   -423.8625141	          270.8	   -423.8625141	    0.00000E+00	    0.00000E+00	    0.00000E+00	  
255  	   -458.5409935	          272.1	   -458.5409935	    0.00000E+00	    0.00000E+00	    0.00000E+00	  
254  	    -285.218625	          273.4	    -285.218625	    0.00000E+00	    0.00000E+00	    0.00000E+00	  
253  	   -302.4667084	          274.8	   -302.4667084	    0.00000E+00	    0.00000E+00	    0.00000E+00	  
252  	   -365.9115158	          275.8	   -365.9115158	    0.00000E+00	    0.00000E+00	    0.00000E+00	  
251  	   -259.4875559	          277.3	   -259.4875559	    0.00000E+00	    0.00000E+00	    0.00000E+00	  
250  	   -476.4689903	          278.2	   -476.4689903	    0.00000E+00	    0.00000E+00	    0.00000E+00	  
249  	   -500.8931179	          279.7	   -500.8931179	    0.00000E+00	    0.00000E+00	    0.00000E+00	  
248  	   -418.7194597	          281.0	   -418.7194597	    0.00000E+00	    0.00000E+00	    0.00000E+00	  
247  	   -678.5061158	          282.5	   -678.5061158	    0.00000E+00	    0.00000E+00	    0.00000E+00	  
246  	   -725.2090209	          283.8	   -725.2090209	    0.00000E+00	    0.00000E+00	    0.00000E+00	  
245  	   -969.6901876	          285.0	   -969.6901876	    0.00000E+00	    0.00000E+00	    0.00000E+00	  
244  	   -1133.357346	          286.4	   -1133.357346	    0.00000E+00	    0.00000E+00	    0.00000E+00	  
243  	   -1278.590278	          287.8	   -1278.590278	    0.00000E+00	    0.00000E+00	    0.00000E+00	  
242  	   -1753.820012	          289.2	   -1753.820012	    0.00000E+00	    0.00000E+00	    0.00000E+00	  
241  	   -2070.999987	          290.7	   -2070.999987	    0.00000E+00	    0.00000E+00	    0.00000E+00	  
240  	   -2361.266799	          292.6	   -2361.266799	    0.00000E+00	    0.00000E+00	    0.00000E+00	  
239  	   -3239.537666	          294.6	   -3239.537666	    0.00000E+00	    0.00000E+00	    0.00000E+00	  
238  	   -3377.180339	          296.6	   -3377.180339	    0.00000E+00	    0.00000E+00	    0.00000E+00	  
237  	    -4196.71985	          298.7	    -4196.71985	    0.00000E+00	    0.00000E+00	    0.00000E+00	  
236  	   -4961.210485	          300.9	   -4961.210485	    0.00000E+00	    0.00000E+00	    0.00000E+00	  
235  	   -5430.629338	          302.8	   -5430.629338	    0.00000E+00	    0.00000E+00	    0.00000E+00	  
234  	   -6670.645481	          305.1	   -6670.645481	    0.00000E+00	    0.00000E+00	    0.00000E+00	  
233  	   -7180.610695	          307.6	   -7180.610695	    0.00000E+00	    0.00000E+00	    0.00000E+00	  
232  	   -7899.332526	          309.9	   -7899.332526	    0.00000E+00	    0.00000E+00	    0.00000E+00	  
231  	   -9043.928489	          312.4	   -9043.928489	    0.00000E+00	    0.00000E+00	    0.00000E+00	  
230  	   -10224.49598	          314.4	   -10224.49598	    0.00000E+00	    0.00000E+00	    0.00000E+00	  
229  	   -10960.87856	          317.2	   -10960.87856	    0.00000E+00	    0.00000E+00	    0.00000E+00	  
228  	   -11756.19441	          319.7	   -11756.19441	    0.00000E+00	    0.00000E+00	    0.00000E+00	  
227  	   -12627.64735	          322.7	   -12627.64735	    0.00000E+00	    0.00000E+00	    0.00000E+00	  
226  	   -13507.89396	          325.2	   -13507.89396	    0.00000E+00	    0.00000E+00	    0.00000E+00	  
225  	   -13980.76492	          327.5	   -13980.76492	    0.00000E+00	    0.00000E+00	    0.00000E+00	  
224  	   -14461.30662	          330.1	   -14461.30662	    0.00000E+00	    0.00000E+00	    0.00000E+00	  
223  	   -15034.86119	          332.0	   -15034.86119	    0.00000E+00	    0.00000E+00	    0.00000E+00	  
222  	   -15465.21767	          334.4	   -15465.21767	    0.00000E+00	    0.00000E+00	    0.00000E+00	  
221  	   -15878.94867	          336.7	   -15878.94867	    0.00000E+00	    0.00000E+00	    0.00000E+00	  
220  	   -16447.62806	          339.1	   -16447.62806	    0.00000E+00	    0.00000E+00	    0.00000E+00	  
219  	   -16555.61969	          341.7	   -16555.61969	    0.00000E+00	    0.00000E+00	    0.00000E+00	  
218  	   -16406.51188	          344.3	   -16406.51188	    0.00000E+00	    0.00000E+00	    0.00000E+00	  
217  	   -16755.99615	          347.2	   -16755.99615	    0.00000E+00	    0.00000E+00	    0.00000E+00	  
216  	   -17162.34569	          350.4	   -17162.34569	    0.00000E+00	    0.00000E+00	    0.00000E+00	  
215  	   -17447.54158	          352.9	   -17447.54158	    0.00000E+00	    0.00000E+00	    0.00000E+00	  
214  	   -17550.79823	          356.1	   -17550.79823	    0.00000E+00	    0.00000E+00	    0.00000E+00	  
213  	    -17995.5237	          359.1	    -17995.5237	    0.00000E+00	    0.00000E+00	    0.00000E+00	  
212  	   -18605.98993	          362.5	   -18605.98993	    0.00000E+00	    0.00000E+00	    0.00000E+00	  
211  	   -19521.62011	          366.5	   -19521.62011	    0.00000E+00	    0.00000E+00	    0.00000E+00	  
210  	   -19497.74499	          370.7	   -19497.74499	    0.00000E+00	    0.00000E+00	    0.00000E+00	  
209  	   -20150.47074	          375.4	   -20150.47074	    0.00000E+00	    0.00000E+00	    0.00000E+00	  
208  	    -20110.7688	          380.8	    -20110.7688	    0.00000E+00	    0.00000E+00	    0.00000E+00	  
207  	   -19355.88856	          386.4	   -19355.88856	    0.00000E+00	    0.00000E+00	    0.00000E+00	  
206  	   -17990.74565	          392.7	   -17990.74565	    0.00000E+00	    0.00000E+00	    0.00000E+00	  
205  	    -16365.8127	          398.6	    -16365.8127	    0.00000E+00	    0.00000E+00	    0.00000E+00	  
204  	   -14494.01971	          404.5	   -14494.01971	    0.00000E+00	    0.00000E+00	    0.00000E+00	  
203  	   -11036.67413	          411.1	   -11036.67413	    0.00000E+00	    0.00000E+00	    0.00000E+00	  
202  	   -7948.405766	          418.1	   -7948.405766	    0.00000E+00	    0.00000E+00	    0.00000E+00	  
201  	   -4208.323176	          426.0	   -4208.323176	    0.00000E+00	    0.00000E+00	    0.00000E+00	  
200  	    351.1300496	          435.2	    351.1300496	    0.00000E+00	    0.00000E+00	    0.00000E+00	  
199  	     5510.11853	          444.7	     5510.11853	    0.00000E+00	    0.00000E+00	    0.00000E+00	  
198  	    10111.99903	          454.8	    10111.99903	    0.00000E+00	    0.00000E+00	    0.00000E+00	  
197  	    14669.54919	          465.5	    14669.54919	    0.00000E+00	    0.00000E+00	    0.00000E+00	  
196  	    18963.44577	          476.3	    18963.44577	    0.00000E+00	    0.00000E+00	    0.00000E+00	  
195  	    21254.14995	          486.9	    21254.14995	    0.00000E+00	    0.00000E+00	    0.00000E+00	  
194  	    24342.16093	          498.3	    24342.16093	    0.00000E+00	    0.00000E+00	    0.00000E+00	  
193  	    24897.14279	          510.1	    24897.14279	    0.00000E+00	    0.00000E+00	    0.00000E+00	  
192  	    25888.49652	          523.4	    25888.49652	    0.00000E+00	    0.00000E+00	    0.00000E+00	  
191  	     26003.3199	          537.5	     26003.3199	    0.00000E+00	    0.00000E+00	    0.00000E+00	  
190  	    26006.40644	          557.3	    26006.40644	    0.00000E+00	    0.00000E+00	    0.00000E+00	  
189  	     23914.9811	          579.4	     23914.9811	    0.00000E+00	    0.00000E+00	    0.00000E+00	  
188  	    21577.46372	          612.9	    21577.46372	    0.00000E+00	    0.00000E+00	    0.00000E+00	  
187  	    22090.78094	          654.1	    22090.78094	    0.00000E+00	    0.00000E+00	    0.00000E+00	  
186  	    18244.47264	          715.1	    18244.47264	    0.00000E+00	    0.00000E+00	    0.00000E+00	  
185  	    16709.52994	          788.9	    16709.52994	    0.00000E+00	    0.00000E+00	    0.00000E+00	  
184  	    20258.34108	          893.6	    20258.34108	    0.00000E+00	    0.00000E+00	    0.00000E+00	  
183  	    9217.409837	         1004.9	    9217.409837	    0.00000E+00	    0.00000E+00	    0.00000E+00	  
182  	    4736.728811	         1093.6	    4736.728811	    0.00000E+00	    0.00000E+00	    0.00000E+00	  
181  	   -23697.93358	         1129.5	   -23697.93358	    0.00000E+00	    0.00000E+00	    0.00000E+00	  
180  	   -6336.722003	         1139.0	   -6336.722003	    0.00000E+00	    0.00000E+00	    0.00000E+00	  
