Generic               	CD0003889000
Experiment            	Antithrombin-III
Description           	Protein name : Antithrombin-III. Deposited into the PCDDB by Frank Wien
Concentration (mg/ml) 	5.25
Temperature           	25
Machine               	Soleil DISCO
Pathlength (cm)       	0.0012
Accumulations         	5
High Wavelength       	275
Low Wavelength        	170
Interval (nm)         	1
Dwell time (s)        	1.2
Date                  	2012-09-07T00:00:00
M.R.W. (Da)           	113.7077
Smoothing window      	11
PDB                   	1SR5
Swissprot             	P01008-1
Code                  	No citation information currently associated with this entry.
275.0	   -1.24703E+00	       -911.841	   -1.24703E+00	    0.00000E+00	    0.00000E+00	    0.00000E+00	  
274.0	    9.00255E-02	     -437.37283	    9.00255E-02	    0.00000E+00	    0.00000E+00	    0.00000E+00	  
273.0	    1.57877E-01	     -437.26953	    1.57877E-01	    0.00000E+00	    0.00000E+00	    0.00000E+00	  
272.0	    2.34845E-01	     -436.36087	    2.34845E-01	    0.00000E+00	    0.00000E+00	    0.00000E+00	  
271.0	    1.31549E-01	     -436.42889	    1.31549E-01	    0.00000E+00	    0.00000E+00	    0.00000E+00	  
270.0	   -2.57448E-01	     -437.10626	   -2.57448E-01	    0.00000E+00	    0.00000E+00	    0.00000E+00	  
269.0	    1.96614E-01	     -436.53345	    1.96614E-01	    0.00000E+00	    0.00000E+00	    0.00000E+00	  
268.0	    3.07052E-02	     -437.50577	    3.07052E-02	    0.00000E+00	    0.00000E+00	    0.00000E+00	  
267.0	    2.99198E-01	     -437.21878	    2.99198E-01	    0.00000E+00	    0.00000E+00	    0.00000E+00	  
266.0	   -2.00464E-01	     -438.66162	   -2.00464E-01	    0.00000E+00	    0.00000E+00	    0.00000E+00	  
265.0	   -9.04839E-02	      -438.3208	   -9.04839E-02	    0.00000E+00	    0.00000E+00	    0.00000E+00	  
264.0	   -1.12830E-01	     -438.95432	   -1.12830E-01	    0.00000E+00	    0.00000E+00	    0.00000E+00	  
263.0	    1.34710E-01	     -440.53241	    1.34710E-01	    0.00000E+00	    0.00000E+00	    0.00000E+00	  
262.0	   -2.16689E-01	      -440.4989	   -2.16689E-01	    0.00000E+00	    0.00000E+00	    0.00000E+00	  
261.0	   -5.47522E-02	     -441.84106	   -5.47522E-02	    0.00000E+00	    0.00000E+00	    0.00000E+00	  
260.0	    5.28925E-02	     -442.40274	    5.28925E-02	    0.00000E+00	    0.00000E+00	    0.00000E+00	  
259.0	    1.61983E-01	     -443.70358	    1.61983E-01	    0.00000E+00	    0.00000E+00	    0.00000E+00	  
258.0	   -1.84541E-01	      -443.8356	   -1.84541E-01	    0.00000E+00	    0.00000E+00	    0.00000E+00	  
257.0	    1.55076E-01	     -445.39355	    1.55076E-01	    0.00000E+00	    0.00000E+00	    0.00000E+00	  
256.0	   -3.88221E-02	     -445.58517	   -3.88221E-02	    0.00000E+00	    0.00000E+00	    0.00000E+00	  
255.0	    1.17425E-02	     -447.24991	    1.17425E-02	    0.00000E+00	    0.00000E+00	    0.00000E+00	  
254.0	    1.51844E-01	     -448.42587	    1.51844E-01	    0.00000E+00	    0.00000E+00	    0.00000E+00	  
253.0	   -1.26676E-01	     -449.36243	   -1.26676E-01	    0.00000E+00	    0.00000E+00	    0.00000E+00	  
252.0	   -1.76857E-02	     -449.84573	   -1.76857E-02	    0.00000E+00	    0.00000E+00	    0.00000E+00	  
251.0	    2.82671E-01	     -450.63519	    2.82671E-01	    0.00000E+00	    0.00000E+00	    0.00000E+00	  
250.0	    9.55764E-02	     -452.33005	    9.55764E-02	    0.00000E+00	    0.00000E+00	    0.00000E+00	  
249.0	   -4.45545E-01	     -452.53174	   -4.45545E-01	    0.00000E+00	    0.00000E+00	    0.00000E+00	  
248.0	   -1.00183E-01	     -453.32837	   -1.00183E-01	    0.00000E+00	    0.00000E+00	    0.00000E+00	  
247.0	   -1.24626E-01	     -454.53662	   -1.24626E-01	    0.00000E+00	    0.00000E+00	    0.00000E+00	  
246.0	    1.10564E-02	     -456.62408	    1.10564E-02	    0.00000E+00	    0.00000E+00	    0.00000E+00	  
245.0	   -1.18599E-01	      -456.7352	   -1.18599E-01	    0.00000E+00	    0.00000E+00	    0.00000E+00	  
244.0	   -1.61226E-01	     -457.87311	   -1.61226E-01	    0.00000E+00	    0.00000E+00	    0.00000E+00	  
243.0	    4.54006E-02	     -458.91257	    4.54006E-02	    0.00000E+00	    0.00000E+00	    0.00000E+00	  
242.0	   -2.31284E-01	     -459.95862	   -2.31284E-01	    0.00000E+00	    0.00000E+00	    0.00000E+00	  
241.0	   -4.56544E-01	     -461.20496	   -4.56544E-01	    0.00000E+00	    0.00000E+00	    0.00000E+00	  
240.0	   -9.26086E-01	     -462.10922	   -9.26086E-01	    0.00000E+00	    0.00000E+00	    0.00000E+00	  
239.0	   -6.67254E-01	     -462.57117	   -6.67254E-01	    0.00000E+00	    0.00000E+00	    0.00000E+00	  
238.0	   -8.41131E-01	     -463.45792	   -8.41131E-01	    0.00000E+00	    0.00000E+00	    0.00000E+00	  
237.0	   -9.25884E-01	      -463.4516	   -9.25884E-01	    0.00000E+00	    0.00000E+00	    0.00000E+00	  
236.0	   -8.92001E-01	     -463.40823	   -8.92001E-01	    0.00000E+00	    0.00000E+00	    0.00000E+00	  
235.0	   -1.30550E+00	       -461.879	   -1.30550E+00	    0.00000E+00	    0.00000E+00	    0.00000E+00	  
234.0	   -9.75799E-01	     -461.20325	   -9.75799E-01	    0.00000E+00	    0.00000E+00	    0.00000E+00	  
233.0	   -1.47183E+00	     -460.17352	   -1.47183E+00	    0.00000E+00	    0.00000E+00	    0.00000E+00	  
232.0	   -1.80447E+00	     -458.10999	   -1.80447E+00	    0.00000E+00	    0.00000E+00	    0.00000E+00	  
231.0	   -1.97538E+00	     -456.70908	   -1.97538E+00	    0.00000E+00	    0.00000E+00	    0.00000E+00	  
230.0	   -2.37199E+00	     -455.29681	   -2.37199E+00	    0.00000E+00	    0.00000E+00	    0.00000E+00	  
229.0	   -2.30997E+00	     -454.09158	   -2.30997E+00	    0.00000E+00	    0.00000E+00	    0.00000E+00	  
228.0	   -2.59456E+00	     -452.94095	   -2.59456E+00	    0.00000E+00	    0.00000E+00	    0.00000E+00	  
227.0	   -2.71499E+00	     -452.04715	   -2.71499E+00	    0.00000E+00	    0.00000E+00	    0.00000E+00	  
226.0	   -2.92428E+00	     -451.12134	   -2.92428E+00	    0.00000E+00	    0.00000E+00	    0.00000E+00	  
225.0	   -2.85481E+00	     -451.36441	   -2.85481E+00	    0.00000E+00	    0.00000E+00	    0.00000E+00	  
224.0	   -3.00643E+00	      -450.7059	   -3.00643E+00	    0.00000E+00	    0.00000E+00	    0.00000E+00	  
223.0	   -3.22327E+00	     -451.17249	   -3.22327E+00	    0.00000E+00	    0.00000E+00	    0.00000E+00	  
222.0	   -3.18834E+00	     -451.22861	   -3.18834E+00	    0.00000E+00	    0.00000E+00	    0.00000E+00	  
221.0	   -3.24672E+00	     -451.07205	   -3.24672E+00	    0.00000E+00	    0.00000E+00	    0.00000E+00	  
220.0	   -3.30478E+00	     -451.63626	   -3.30478E+00	    0.00000E+00	    0.00000E+00	    0.00000E+00	  
219.0	   -2.93147E+00	     -451.59879	   -2.93147E+00	    0.00000E+00	    0.00000E+00	    0.00000E+00	  
218.0	   -3.25663E+00	     -451.79306	   -3.25663E+00	    0.00000E+00	    0.00000E+00	    0.00000E+00	  
217.0	   -3.01308E+00	     -452.09207	   -3.01308E+00	    0.00000E+00	    0.00000E+00	    0.00000E+00	  
216.0	   -2.88791E+00	     -452.16214	   -2.88791E+00	    0.00000E+00	    0.00000E+00	    0.00000E+00	  
215.0	   -3.15748E+00	     -452.14157	   -3.15748E+00	    0.00000E+00	    0.00000E+00	    0.00000E+00	  
214.0	   -3.03110E+00	     -452.52533	   -3.03110E+00	    0.00000E+00	    0.00000E+00	    0.00000E+00	  
213.0	   -2.96536E+00	     -453.61108	   -2.96536E+00	    0.00000E+00	    0.00000E+00	    0.00000E+00	  
212.0	   -2.89854E+00	      -454.2084	   -2.89854E+00	    0.00000E+00	    0.00000E+00	    0.00000E+00	  
211.0	   -3.31660E+00	     -454.43762	   -3.31660E+00	    0.00000E+00	    0.00000E+00	    0.00000E+00	  
210.0	   -2.83033E+00	     -454.95309	   -2.83033E+00	    0.00000E+00	    0.00000E+00	    0.00000E+00	  
209.0	   -3.05288E+00	     -455.41452	   -3.05288E+00	    0.00000E+00	    0.00000E+00	    0.00000E+00	  
208.0	   -2.59055E+00	     -456.64401	   -2.59055E+00	    0.00000E+00	    0.00000E+00	    0.00000E+00	  
207.0	   -2.58113E+00	     -458.22803	   -2.58113E+00	    0.00000E+00	    0.00000E+00	    0.00000E+00	  
206.0	   -2.32663E+00	     -459.70023	   -2.32663E+00	    0.00000E+00	    0.00000E+00	    0.00000E+00	  
205.0	   -1.44790E+00	      -460.6608	   -1.44790E+00	    0.00000E+00	    0.00000E+00	    0.00000E+00	  
204.0	   -1.20025E+00	     -463.51813	   -1.20025E+00	    0.00000E+00	    0.00000E+00	    0.00000E+00	  
203.0	   -4.35603E-01	     -464.31573	   -4.35603E-01	    0.00000E+00	    0.00000E+00	    0.00000E+00	  
202.0	   -1.49943E-03	     -467.09082	   -1.49943E-03	    0.00000E+00	    0.00000E+00	    0.00000E+00	  
201.0	    9.05366E-01	     -469.01117	    9.05366E-01	    0.00000E+00	    0.00000E+00	    0.00000E+00	  
200.0	    1.70816E+00	     -471.94519	    1.70816E+00	    0.00000E+00	    0.00000E+00	    0.00000E+00	  
199.0	    2.50582E+00	     -474.76453	    2.50582E+00	    0.00000E+00	    0.00000E+00	    0.00000E+00	  
198.0	    3.70532E+00	      -478.6662	    3.70532E+00	    0.00000E+00	    0.00000E+00	    0.00000E+00	  
197.0	    4.07159E+00	     -482.31403	    4.07159E+00	    0.00000E+00	    0.00000E+00	    0.00000E+00	  
196.0	    4.77723E+00	     -485.68832	    4.77723E+00	    0.00000E+00	    0.00000E+00	    0.00000E+00	  
195.0	    5.07017E+00	      -489.0072	    5.07017E+00	    0.00000E+00	    0.00000E+00	    0.00000E+00	  
194.0	    5.38670E+00	     -492.19626	    5.38670E+00	    0.00000E+00	    0.00000E+00	    0.00000E+00	  
193.0	    5.49758E+00	     -495.19852	    5.49758E+00	    0.00000E+00	    0.00000E+00	    0.00000E+00	  
192.0	    5.24492E+00	     -499.03824	    5.24492E+00	    0.00000E+00	    0.00000E+00	    0.00000E+00	  
191.0	    5.33760E+00	     -502.94717	    5.33760E+00	    0.00000E+00	    0.00000E+00	    0.00000E+00	  
190.0	    4.66288E+00	      -509.1763	    4.66288E+00	    0.00000E+00	    0.00000E+00	    0.00000E+00	  
189.0	    4.81760E+00	     -515.70453	    4.81760E+00	    0.00000E+00	    0.00000E+00	    0.00000E+00	  
188.0	    4.09096E+00	     -525.23022	    4.09096E+00	    0.00000E+00	    0.00000E+00	    0.00000E+00	  
187.0	    3.15125E+00	     -537.39062	    3.15125E+00	    0.00000E+00	    0.00000E+00	    0.00000E+00	  
186.0	    3.01863E+00	     -552.89478	    3.01863E+00	    0.00000E+00	    0.00000E+00	    0.00000E+00	  
185.0	    2.76903E+00	     -572.83582	    2.76903E+00	    0.00000E+00	    0.00000E+00	    0.00000E+00	  
184.0	    1.86867E+00	     -597.67407	    1.86867E+00	    0.00000E+00	    0.00000E+00	    0.00000E+00	  
183.0	    1.14650E+00	     -626.04047	    1.14650E+00	    0.00000E+00	    0.00000E+00	    0.00000E+00	  
182.0	    1.75557E+00	     -660.13751	    1.75557E+00	    0.00000E+00	    0.00000E+00	    0.00000E+00	  
181.0	   -6.13893E-01	     -696.17395	   -6.13893E-01	    0.00000E+00	    0.00000E+00	    0.00000E+00	  
180.0	   -2.66424E-01	     -735.61621	   -2.66424E-01	    0.00000E+00	    0.00000E+00	    0.00000E+00	  
179.0	    4.99313E-01	     -773.50616	    4.99313E-01	    0.00000E+00	    0.00000E+00	    0.00000E+00	  
178.0	    1.21313E+00	     -805.77344	    1.21313E+00	    0.00000E+00	    0.00000E+00	    0.00000E+00	  
177.0	   -6.78975E-01	     -831.89667	   -6.78975E-01	    0.00000E+00	    0.00000E+00	    0.00000E+00	  
176.0	   -6.59900E-01	     -851.91656	   -6.59900E-01	    0.00000E+00	    0.00000E+00	    0.00000E+00	  
175.0	    1.13966E+00	     -865.67902	    1.13966E+00	    0.00000E+00	    0.00000E+00	    0.00000E+00	  
174.0	   -3.20956E+00	     -877.46637	   -3.20956E+00	    0.00000E+00	    0.00000E+00	    0.00000E+00	  
173.0	   -8.35990E-01	     -888.43823	   -8.35990E-01	    0.00000E+00	    0.00000E+00	    0.00000E+00	  
172.0	   -1.51819E+00	     -898.02582	   -1.51819E+00	    0.00000E+00	    0.00000E+00	    0.00000E+00	  
171.0	   -1.15594E+00	     -907.38281	   -1.15594E+00	    0.00000E+00	    0.00000E+00	    0.00000E+00	  
170.0	   -3.46565E-01	     -913.05804	   -3.46565E-01	    0.00000E+00	    0.00000E+00	    0.00000E+00	  
