Generic               	CD0004692000
Experiment            	Hemoglobin
Description           	Protein name : Hemoglobin. Deposited into the PCDDB by Marta Bolsa-Ferruz
Concentration (mg/ml) 	3.3
Temperature           	37
Machine               	Soleil DISCO
Pathlength (cm)       	0.0024
Accumulations         	3
High Wavelength       	291
Low Wavelength        	170
Interval (nm)         	1
Dwell time (s)        	No data provided
Date                  	2015-01-30T00:00:00
M.R.W. (Da)           	108.3
Smoothing window      	5
PDB                   	No data provided
Swissprot             	P69905,P68871,P69905,P02042
Code                  	No citation information currently associated with this entry.
291.0	   -7.22317E+00	     -456.77563	   -7.22317E+00	    0.00000E+00	    0.00000E+00	    0.00000E+00	  
290.0	   -8.93357E-02	     -456.73975	   -8.93357E-02	    0.00000E+00	    0.00000E+00	    0.00000E+00	  
289.0	    1.55935E-03	     -453.86176	    1.55935E-03	    0.00000E+00	    0.00000E+00	    0.00000E+00	  
288.0	   -2.27151E-01	     -451.27911	   -2.27151E-01	    0.00000E+00	    0.00000E+00	    0.00000E+00	  
287.0	   -2.56533E-01	     -448.93185	   -2.56533E-01	    0.00000E+00	    0.00000E+00	    0.00000E+00	  
286.0	   -1.47245E-01	     -447.15222	   -1.47245E-01	    0.00000E+00	    0.00000E+00	    0.00000E+00	  
285.0	    4.60947E-02	     -445.79141	    4.60947E-02	    0.00000E+00	    0.00000E+00	    0.00000E+00	  
284.0	   -5.76324E-02	     -444.26947	   -5.76324E-02	    0.00000E+00	    0.00000E+00	    0.00000E+00	  
283.0	   -6.18601E-03	     -442.96439	   -6.18601E-03	    0.00000E+00	    0.00000E+00	    0.00000E+00	  
282.0	    3.91350E-02	     -441.64978	    3.91350E-02	    0.00000E+00	    0.00000E+00	    0.00000E+00	  
281.0	   -5.66590E-02	     -440.23373	   -5.66590E-02	    0.00000E+00	    0.00000E+00	    0.00000E+00	  
280.0	    1.00502E-01	     -438.80646	    1.00502E-01	    0.00000E+00	    0.00000E+00	    0.00000E+00	  
279.0	    6.21601E-02	     -437.68777	    6.21601E-02	    0.00000E+00	    0.00000E+00	    0.00000E+00	  
278.0	   -1.17880E-02	     -436.50803	   -1.17880E-02	    0.00000E+00	    0.00000E+00	    0.00000E+00	  
277.0	   -7.58289E-02	     -435.57764	   -7.58289E-02	    0.00000E+00	    0.00000E+00	    0.00000E+00	  
276.0	    1.50298E-01	     -434.67929	    1.50298E-01	    0.00000E+00	    0.00000E+00	    0.00000E+00	  
275.0	    1.34097E-01	     -433.57693	    1.34097E-01	    0.00000E+00	    0.00000E+00	    0.00000E+00	  
274.0	    3.22007E-02	     -433.18909	    3.22007E-02	    0.00000E+00	    0.00000E+00	    0.00000E+00	  
273.0	    3.14523E-02	     -432.77484	    3.14523E-02	    0.00000E+00	    0.00000E+00	    0.00000E+00	  
272.0	   -1.25335E-02	     -432.36447	   -1.25335E-02	    0.00000E+00	    0.00000E+00	    0.00000E+00	  
271.0	   -5.39876E-02	     -432.45074	   -5.39876E-02	    0.00000E+00	    0.00000E+00	    0.00000E+00	  
270.0	    3.84725E-03	     -432.16122	    3.84725E-03	    0.00000E+00	    0.00000E+00	    0.00000E+00	  
269.0	   -1.49585E-01	      -432.7879	   -1.49585E-01	    0.00000E+00	    0.00000E+00	    0.00000E+00	  
268.0	   -3.67522E-02	     -433.00995	   -3.67522E-02	    0.00000E+00	    0.00000E+00	    0.00000E+00	  
267.0	    7.58392E-02	     -433.40567	    7.58392E-02	    0.00000E+00	    0.00000E+00	    0.00000E+00	  
266.0	    5.40938E-02	     -434.37128	    5.40938E-02	    0.00000E+00	    0.00000E+00	    0.00000E+00	  
265.0	    3.73412E-02	     -435.05569	    3.73412E-02	    0.00000E+00	    0.00000E+00	    0.00000E+00	  
264.0	   -1.37424E-01	     -435.55432	   -1.37424E-01	    0.00000E+00	    0.00000E+00	    0.00000E+00	  
263.0	   -1.77001E-01	     -436.44391	   -1.77001E-01	    0.00000E+00	    0.00000E+00	    0.00000E+00	  
262.0	    1.18661E-01	     -437.37286	    1.18661E-01	    0.00000E+00	    0.00000E+00	    0.00000E+00	  
261.0	    5.35455E-02	     -438.38593	    5.35455E-02	    0.00000E+00	    0.00000E+00	    0.00000E+00	  
260.0	    1.74714E-01	     -439.18948	    1.74714E-01	    0.00000E+00	    0.00000E+00	    0.00000E+00	  
259.0	   -1.12963E-01	     -439.72723	   -1.12963E-01	    0.00000E+00	    0.00000E+00	    0.00000E+00	  
258.0	    2.35966E-02	     -440.75354	    2.35966E-02	    0.00000E+00	    0.00000E+00	    0.00000E+00	  
257.0	   -7.49559E-02	     -441.92661	   -7.49559E-02	    0.00000E+00	    0.00000E+00	    0.00000E+00	  
256.0	   -3.43960E-02	     -443.10742	   -3.43960E-02	    0.00000E+00	    0.00000E+00	    0.00000E+00	  
255.0	    8.53885E-02	     -443.75851	    8.53885E-02	    0.00000E+00	    0.00000E+00	    0.00000E+00	  
254.0	   -6.56296E-02	     -445.14133	   -6.56296E-02	    0.00000E+00	    0.00000E+00	    0.00000E+00	  
253.0	   -2.64173E-02	     -445.93906	   -2.64173E-02	    0.00000E+00	    0.00000E+00	    0.00000E+00	  
252.0	   -6.68750E-03	     -447.37021	   -6.68750E-03	    0.00000E+00	    0.00000E+00	    0.00000E+00	  
251.0	    1.67117E-01	     -447.85916	    1.67117E-01	    0.00000E+00	    0.00000E+00	    0.00000E+00	  
250.0	    2.76677E-02	      -449.7124	    2.76677E-02	    0.00000E+00	    0.00000E+00	    0.00000E+00	  
249.0	   -4.74370E-03	     -450.25818	   -4.74370E-03	    0.00000E+00	    0.00000E+00	    0.00000E+00	  
248.0	   -2.43368E-01	     -451.12936	   -2.43368E-01	    0.00000E+00	    0.00000E+00	    0.00000E+00	  
247.0	    7.05133E-02	     -452.67346	    7.05133E-02	    0.00000E+00	    0.00000E+00	    0.00000E+00	  
246.0	   -2.38280E-01	     -453.83398	   -2.38280E-01	    0.00000E+00	    0.00000E+00	    0.00000E+00	  
245.0	   -2.62658E-01	     -455.16287	   -2.62658E-01	    0.00000E+00	    0.00000E+00	    0.00000E+00	  
244.0	   -4.58979E-01	     -455.86957	   -4.58979E-01	    0.00000E+00	    0.00000E+00	    0.00000E+00	  
243.0	   -4.70074E-01	     -457.45944	   -4.70074E-01	    0.00000E+00	    0.00000E+00	    0.00000E+00	  
242.0	   -5.00634E-01	     -458.05823	   -5.00634E-01	    0.00000E+00	    0.00000E+00	    0.00000E+00	  
241.0	   -6.76003E-01	      -459.3927	   -6.76003E-01	    0.00000E+00	    0.00000E+00	    0.00000E+00	  
240.0	   -9.79702E-01	     -460.85315	   -9.79702E-01	    0.00000E+00	    0.00000E+00	    0.00000E+00	  
239.0	   -1.16723E+00	      -461.1499	   -1.16723E+00	    0.00000E+00	    0.00000E+00	    0.00000E+00	  
238.0	   -1.57947E+00	     -461.73209	   -1.57947E+00	    0.00000E+00	    0.00000E+00	    0.00000E+00	  
237.0	   -1.74397E+00	     -461.76157	   -1.74397E+00	    0.00000E+00	    0.00000E+00	    0.00000E+00	  
236.0	   -2.23544E+00	     -462.40631	   -2.23544E+00	    0.00000E+00	    0.00000E+00	    0.00000E+00	  
235.0	   -2.85072E+00	     -462.25098	   -2.85072E+00	    0.00000E+00	    0.00000E+00	    0.00000E+00	  
234.0	   -3.13022E+00	     -461.20743	   -3.13022E+00	    0.00000E+00	    0.00000E+00	    0.00000E+00	  
233.0	   -3.65234E+00	      -460.9451	   -3.65234E+00	    0.00000E+00	    0.00000E+00	    0.00000E+00	  
232.0	   -4.21212E+00	     -461.05576	   -4.21212E+00	    0.00000E+00	    0.00000E+00	    0.00000E+00	  
231.0	   -4.97343E+00	     -459.86447	   -4.97343E+00	    0.00000E+00	    0.00000E+00	    0.00000E+00	  
230.0	   -5.52577E+00	      -459.7041	   -5.52577E+00	    0.00000E+00	    0.00000E+00	    0.00000E+00	  
229.0	   -6.27708E+00	     -459.73807	   -6.27708E+00	    0.00000E+00	    0.00000E+00	    0.00000E+00	  
228.0	   -6.66790E+00	     -458.63788	   -6.66790E+00	    0.00000E+00	    0.00000E+00	    0.00000E+00	  
227.0	   -7.07001E+00	     -458.48987	   -7.07001E+00	    0.00000E+00	    0.00000E+00	    0.00000E+00	  
226.0	   -7.51222E+00	     -458.49805	   -7.51222E+00	    0.00000E+00	    0.00000E+00	    0.00000E+00	  
225.0	   -7.85137E+00	      -458.4212	   -7.85137E+00	    0.00000E+00	    0.00000E+00	    0.00000E+00	  
224.0	   -8.00455E+00	     -459.82245	   -8.00455E+00	    0.00000E+00	    0.00000E+00	    0.00000E+00	  
223.0	   -8.08861E+00	     -459.87451	   -8.08861E+00	    0.00000E+00	    0.00000E+00	    0.00000E+00	  
222.0	   -8.07202E+00	     -460.41882	   -8.07202E+00	    0.00000E+00	    0.00000E+00	    0.00000E+00	  
221.0	   -8.28163E+00	     -461.70679	   -8.28163E+00	    0.00000E+00	    0.00000E+00	    0.00000E+00	  
220.0	   -7.92267E+00	     -462.61899	   -7.92267E+00	    0.00000E+00	    0.00000E+00	    0.00000E+00	  
219.0	   -7.76097E+00	     -462.59283	   -7.76097E+00	    0.00000E+00	    0.00000E+00	    0.00000E+00	  
218.0	   -7.70251E+00	     -464.40308	   -7.70251E+00	    0.00000E+00	    0.00000E+00	    0.00000E+00	  
217.0	   -7.50174E+00	     -465.05884	   -7.50174E+00	    0.00000E+00	    0.00000E+00	    0.00000E+00	  
216.0	   -7.32716E+00	     -465.94604	   -7.32716E+00	    0.00000E+00	    0.00000E+00	    0.00000E+00	  
215.0	   -7.22897E+00	     -466.95706	   -7.22897E+00	    0.00000E+00	    0.00000E+00	    0.00000E+00	  
214.0	   -7.02422E+00	     -468.18195	   -7.02422E+00	    0.00000E+00	    0.00000E+00	    0.00000E+00	  
213.0	   -6.97475E+00	     -469.19183	   -6.97475E+00	    0.00000E+00	    0.00000E+00	    0.00000E+00	  
212.0	   -6.71809E+00	     -470.34653	   -6.71809E+00	    0.00000E+00	    0.00000E+00	    0.00000E+00	  
211.0	   -7.05938E+00	     -471.86816	   -7.05938E+00	    0.00000E+00	    0.00000E+00	    0.00000E+00	  
210.0	   -7.07383E+00	     -473.92792	   -7.07383E+00	    0.00000E+00	    0.00000E+00	    0.00000E+00	  
209.0	   -6.98948E+00	     -475.27094	   -6.98948E+00	    0.00000E+00	    0.00000E+00	    0.00000E+00	  
208.0	   -6.92178E+00	     -477.36447	   -6.92178E+00	    0.00000E+00	    0.00000E+00	    0.00000E+00	  
207.0	   -5.95761E+00	     -480.49942	   -5.95761E+00	    0.00000E+00	    0.00000E+00	    0.00000E+00	  
206.0	   -5.14990E+00	     -482.87939	   -5.14990E+00	    0.00000E+00	    0.00000E+00	    0.00000E+00	  
205.0	   -3.91295E+00	     -485.79468	   -3.91295E+00	    0.00000E+00	    0.00000E+00	    0.00000E+00	  
204.0	   -1.80115E+00	     -489.58737	   -1.80115E+00	    0.00000E+00	    0.00000E+00	    0.00000E+00	  
203.0	   -2.71577E-02	     -492.68921	   -2.71577E-02	    0.00000E+00	    0.00000E+00	    0.00000E+00	  
202.0	    2.26733E+00	      -497.4295	    2.26733E+00	    0.00000E+00	    0.00000E+00	    0.00000E+00	  
201.0	    4.56426E+00	     -502.59402	    4.56426E+00	    0.00000E+00	    0.00000E+00	    0.00000E+00	  
200.0	    7.33158E+00	     -506.76187	    7.33158E+00	    0.00000E+00	    0.00000E+00	    0.00000E+00	  
199.0	    1.00662E+01	     -512.90442	    1.00662E+01	    0.00000E+00	    0.00000E+00	    0.00000E+00	  
198.0	    1.29127E+01	     -519.71729	    1.29127E+01	    0.00000E+00	    0.00000E+00	    0.00000E+00	  
197.0	    1.46662E+01	     -525.74432	    1.46662E+01	    0.00000E+00	    0.00000E+00	    0.00000E+00	  
196.0	    1.60336E+01	     -532.78955	    1.60336E+01	    0.00000E+00	    0.00000E+00	    0.00000E+00	  
195.0	    1.70149E+01	     -538.48486	    1.70149E+01	    0.00000E+00	    0.00000E+00	    0.00000E+00	  
194.0	    1.70225E+01	     -543.63031	    1.70225E+01	    0.00000E+00	    0.00000E+00	    0.00000E+00	  
193.0	    1.65171E+01	     -546.79303	    1.65171E+01	    0.00000E+00	    0.00000E+00	    0.00000E+00	  
192.0	    1.58392E+01	     -547.89185	    1.58392E+01	    0.00000E+00	    0.00000E+00	    0.00000E+00	  
191.0	    1.45346E+01	     -547.94525	    1.45346E+01	    0.00000E+00	    0.00000E+00	    0.00000E+00	  
190.0	    1.28524E+01	     -546.96307	    1.28524E+01	    0.00000E+00	    0.00000E+00	    0.00000E+00	  
189.0	    1.12988E+01	      -545.0271	    1.12988E+01	    0.00000E+00	    0.00000E+00	    0.00000E+00	  
188.0	    9.09950E+00	     -541.60358	    9.09950E+00	    0.00000E+00	    0.00000E+00	    0.00000E+00	  
187.0	    7.52460E+00	     -539.35205	    7.52460E+00	    0.00000E+00	    0.00000E+00	    0.00000E+00	  
186.0	    6.00959E+00	     -534.95593	    6.00959E+00	    0.00000E+00	    0.00000E+00	    0.00000E+00	  
185.0	    5.50876E+00	     -532.24408	    5.50876E+00	    0.00000E+00	    0.00000E+00	    0.00000E+00	  
184.0	    4.63953E+00	     -530.32086	    4.63953E+00	    0.00000E+00	    0.00000E+00	    0.00000E+00	  
183.0	    4.03153E+00	     -528.56934	    4.03153E+00	    0.00000E+00	    0.00000E+00	    0.00000E+00	  
182.0	    3.28090E+00	     -528.62933	    3.28090E+00	    0.00000E+00	    0.00000E+00	    0.00000E+00	  
181.0	    3.10475E+00	     -529.75586	    3.10475E+00	    0.00000E+00	    0.00000E+00	    0.00000E+00	  
180.0	    2.78808E+00	     -533.21149	    2.78808E+00	    0.00000E+00	    0.00000E+00	    0.00000E+00	  
179.0	    2.42627E+00	     -540.01422	    2.42627E+00	    0.00000E+00	    0.00000E+00	    0.00000E+00	  
178.0	    2.33050E+00	     -550.97443	    2.33050E+00	    0.00000E+00	    0.00000E+00	    0.00000E+00	  
177.0	    2.16008E+00	     -567.70123	    2.16008E+00	    0.00000E+00	    0.00000E+00	    0.00000E+00	  
176.0	    2.25304E+00	      -593.9422	    2.25304E+00	    0.00000E+00	    0.00000E+00	    0.00000E+00	  
175.0	    1.40971E+00	     -634.75714	    1.40971E+00	    0.00000E+00	    0.00000E+00	    0.00000E+00	  
174.0	    1.07213E+00	     -704.38788	    1.07213E+00	    0.00000E+00	    0.00000E+00	    0.00000E+00	  
173.0	    1.06542E+00	     -825.42456	    1.06542E+00	    0.00000E+00	    0.00000E+00	    0.00000E+00	  
172.0	    1.33271E+00	     -1043.1847	    1.33271E+00	    0.00000E+00	    0.00000E+00	    0.00000E+00	  
171.0	    1.17704E+01	      -1400.576	    1.17704E+01	    0.00000E+00	    0.00000E+00	    0.00000E+00	  
170.0	    2.45700E+00	     -1557.0659	    2.45700E+00	    0.00000E+00	    0.00000E+00	    0.00000E+00	  
