Generic               	CD0005954000
Experiment            	Formate Oxidase
Description           	Protein name : Formate Oxidase. Deposited into the PCDDB by JOHN M ROBBINS
Concentration (mg/ml) 	0.065
Temperature           	25
Machine               	Jasco
Pathlength (cm)       	0.1
Accumulations         	5
High Wavelength       	300
Low Wavelength        	185
Interval (nm)         	0.5
Dwell time (s)        	No data provided
Date                  	2015-05-27T00:00:00
M.R.W. (Da)           	111
Smoothing window      	3
PDB                   	3Q9T
Swissprot             	Q2UD26
Code                  	No citation information currently associated with this entry.
300.0	      0.0140038	            000	      0.0140038	    0.00000E+00	    0.00000E+00	    0.00000E+00	  
299.5	      0.0140711	            000	      0.0140711	    0.00000E+00	    0.00000E+00	    0.00000E+00	  
299.0	      0.0257828	            000	      0.0257828	    0.00000E+00	    0.00000E+00	    0.00000E+00	  
298.5	      0.0169955	            000	      0.0169955	    0.00000E+00	    0.00000E+00	    0.00000E+00	  
298.0	      0.0257858	            000	      0.0257858	    0.00000E+00	    0.00000E+00	    0.00000E+00	  
297.5	      0.0324127	            000	      0.0324127	    0.00000E+00	    0.00000E+00	    0.00000E+00	  
297.0	      0.0516827	            000	      0.0516827	    0.00000E+00	    0.00000E+00	    0.00000E+00	  
296.5	      0.0653298	            000	      0.0653298	    0.00000E+00	    0.00000E+00	    0.00000E+00	  
296.0	       0.068482	            000	       0.068482	    0.00000E+00	    0.00000E+00	    0.00000E+00	  
295.5	      0.0636499	            000	      0.0636499	    0.00000E+00	    0.00000E+00	    0.00000E+00	  
295.0	      0.0624453	            000	      0.0624453	    0.00000E+00	    0.00000E+00	    0.00000E+00	  
294.5	      0.0777628	            000	      0.0777628	    0.00000E+00	    0.00000E+00	    0.00000E+00	  
294.0	      0.0723476	            000	      0.0723476	    0.00000E+00	    0.00000E+00	    0.00000E+00	  
293.5	      0.0664135	            000	      0.0664135	    0.00000E+00	    0.00000E+00	    0.00000E+00	  
293.0	      0.0648192	            000	      0.0648192	    0.00000E+00	    0.00000E+00	    0.00000E+00	  
292.5	      0.0778105	            000	      0.0778105	    0.00000E+00	    0.00000E+00	    0.00000E+00	  
292.0	      0.0843821	            000	      0.0843821	    0.00000E+00	    0.00000E+00	    0.00000E+00	  
291.5	       0.104219	            000	       0.104219	    0.00000E+00	    0.00000E+00	    0.00000E+00	  
291.0	       0.112731	            000	       0.112731	    0.00000E+00	    0.00000E+00	    0.00000E+00	  
290.5	        0.12752	            000	        0.12752	    0.00000E+00	    0.00000E+00	    0.00000E+00	  
290.0	       0.133698	            000	       0.133698	    0.00000E+00	    0.00000E+00	    0.00000E+00	  
289.5	       0.145635	            000	       0.145635	    0.00000E+00	    0.00000E+00	    0.00000E+00	  
289.0	       0.146479	            000	       0.146479	    0.00000E+00	    0.00000E+00	    0.00000E+00	  
288.5	       0.125189	            000	       0.125189	    0.00000E+00	    0.00000E+00	    0.00000E+00	  
288.0	       0.126078	            000	       0.126078	    0.00000E+00	    0.00000E+00	    0.00000E+00	  
287.5	       0.123768	            000	       0.123768	    0.00000E+00	    0.00000E+00	    0.00000E+00	  
287.0	        0.13449	            000	        0.13449	    0.00000E+00	    0.00000E+00	    0.00000E+00	  
286.5	       0.131909	            000	       0.131909	    0.00000E+00	    0.00000E+00	    0.00000E+00	  
286.0	        0.12152	            000	        0.12152	    0.00000E+00	    0.00000E+00	    0.00000E+00	  
285.5	        0.12639	            000	        0.12639	    0.00000E+00	    0.00000E+00	    0.00000E+00	  
285.0	       0.128007	            000	       0.128007	    0.00000E+00	    0.00000E+00	    0.00000E+00	  
284.5	       0.143278	            000	       0.143278	    0.00000E+00	    0.00000E+00	    0.00000E+00	  
284.0	       0.138754	            000	       0.138754	    0.00000E+00	    0.00000E+00	    0.00000E+00	  
283.5	       0.120738	            000	       0.120738	    0.00000E+00	    0.00000E+00	    0.00000E+00	  
283.0	       0.118595	            000	       0.118595	    0.00000E+00	    0.00000E+00	    0.00000E+00	  
282.5	       0.121619	            000	       0.121619	    0.00000E+00	    0.00000E+00	    0.00000E+00	  
282.0	       0.127686	            000	       0.127686	    0.00000E+00	    0.00000E+00	    0.00000E+00	  
281.5	       0.123019	            000	       0.123019	    0.00000E+00	    0.00000E+00	    0.00000E+00	  
281.0	       0.112788	            000	       0.112788	    0.00000E+00	    0.00000E+00	    0.00000E+00	  
280.5	       0.115284	            000	       0.115284	    0.00000E+00	    0.00000E+00	    0.00000E+00	  
280.0	       0.107809	            000	       0.107809	    0.00000E+00	    0.00000E+00	    0.00000E+00	  
279.5	      0.0885985	            000	      0.0885985	    0.00000E+00	    0.00000E+00	    0.00000E+00	  
279.0	      0.0827186	            000	      0.0827186	    0.00000E+00	    0.00000E+00	    0.00000E+00	  
278.5	      0.0744499	            000	      0.0744499	    0.00000E+00	    0.00000E+00	    0.00000E+00	  
278.0	      0.0731886	            000	      0.0731886	    0.00000E+00	    0.00000E+00	    0.00000E+00	  
277.5	      0.0642302	            000	      0.0642302	    0.00000E+00	    0.00000E+00	    0.00000E+00	  
277.0	      0.0621355	            000	      0.0621355	    0.00000E+00	    0.00000E+00	    0.00000E+00	  
276.5	       0.072286	            000	       0.072286	    0.00000E+00	    0.00000E+00	    0.00000E+00	  
276.0	      0.0898375	            000	      0.0898375	    0.00000E+00	    0.00000E+00	    0.00000E+00	  
275.5	      0.0865785	            000	      0.0865785	    0.00000E+00	    0.00000E+00	    0.00000E+00	  
275.0	       0.094707	            000	       0.094707	    0.00000E+00	    0.00000E+00	    0.00000E+00	  
274.5	      0.0986384	            000	      0.0986384	    0.00000E+00	    0.00000E+00	    0.00000E+00	  
274.0	       0.101463	            000	       0.101463	    0.00000E+00	    0.00000E+00	    0.00000E+00	  
273.5	       0.105232	            000	       0.105232	    0.00000E+00	    0.00000E+00	    0.00000E+00	  
273.0	       0.117969	            000	       0.117969	    0.00000E+00	    0.00000E+00	    0.00000E+00	  
272.5	      0.0970237	            000	      0.0970237	    0.00000E+00	    0.00000E+00	    0.00000E+00	  
272.0	       0.108135	            000	       0.108135	    0.00000E+00	    0.00000E+00	    0.00000E+00	  
271.5	       0.101782	            000	       0.101782	    0.00000E+00	    0.00000E+00	    0.00000E+00	  
271.0	       0.117077	            000	       0.117077	    0.00000E+00	    0.00000E+00	    0.00000E+00	  
270.5	       0.124002	            000	       0.124002	    0.00000E+00	    0.00000E+00	    0.00000E+00	  
270.0	       0.138027	            000	       0.138027	    0.00000E+00	    0.00000E+00	    0.00000E+00	  
269.5	       0.137218	            000	       0.137218	    0.00000E+00	    0.00000E+00	    0.00000E+00	  
269.0	       0.136456	            000	       0.136456	    0.00000E+00	    0.00000E+00	    0.00000E+00	  
268.5	       0.143367	            000	       0.143367	    0.00000E+00	    0.00000E+00	    0.00000E+00	  
268.0	       0.151459	            000	       0.151459	    0.00000E+00	    0.00000E+00	    0.00000E+00	  
267.5	       0.136886	            000	       0.136886	    0.00000E+00	    0.00000E+00	    0.00000E+00	  
267.0	       0.120717	            000	       0.120717	    0.00000E+00	    0.00000E+00	    0.00000E+00	  
266.5	        0.11152	            000	        0.11152	    0.00000E+00	    0.00000E+00	    0.00000E+00	  
266.0	       0.100776	            000	       0.100776	    0.00000E+00	    0.00000E+00	    0.00000E+00	  
265.5	       0.111174	            000	       0.111174	    0.00000E+00	    0.00000E+00	    0.00000E+00	  
265.0	      0.0864292	            000	      0.0864292	    0.00000E+00	    0.00000E+00	    0.00000E+00	  
264.5	      0.0862539	            000	      0.0862539	    0.00000E+00	    0.00000E+00	    0.00000E+00	  
264.0	      0.0933665	            000	      0.0933665	    0.00000E+00	    0.00000E+00	    0.00000E+00	  
263.5	      0.0907541	            000	      0.0907541	    0.00000E+00	    0.00000E+00	    0.00000E+00	  
263.0	      0.0903859	            000	      0.0903859	    0.00000E+00	    0.00000E+00	    0.00000E+00	  
262.5	      0.0950466	            000	      0.0950466	    0.00000E+00	    0.00000E+00	    0.00000E+00	  
262.0	      0.0898973	            000	      0.0898973	    0.00000E+00	    0.00000E+00	    0.00000E+00	  
261.5	      0.0917041	            000	      0.0917041	    0.00000E+00	    0.00000E+00	    0.00000E+00	  
261.0	      0.0793089	            000	      0.0793089	    0.00000E+00	    0.00000E+00	    0.00000E+00	  
260.5	      0.0803313	            000	      0.0803313	    0.00000E+00	    0.00000E+00	    0.00000E+00	  
260.0	      0.0785033	            000	      0.0785033	    0.00000E+00	    0.00000E+00	    0.00000E+00	  
259.5	      0.0539228	            000	      0.0539228	    0.00000E+00	    0.00000E+00	    0.00000E+00	  
259.0	       0.043952	            000	       0.043952	    0.00000E+00	    0.00000E+00	    0.00000E+00	  
258.5	      0.0476678	            000	      0.0476678	    0.00000E+00	    0.00000E+00	    0.00000E+00	  
258.0	      0.0376803	            000	      0.0376803	    0.00000E+00	    0.00000E+00	    0.00000E+00	  
257.5	      0.0307484	            000	      0.0307484	    0.00000E+00	    0.00000E+00	    0.00000E+00	  
257.0	      0.0291118	            000	      0.0291118	    0.00000E+00	    0.00000E+00	    0.00000E+00	  
256.5	       0.030279	            000	       0.030279	    0.00000E+00	    0.00000E+00	    0.00000E+00	  
256.0	      0.0384491	            000	      0.0384491	    0.00000E+00	    0.00000E+00	    0.00000E+00	  
255.5	      0.0231333	            000	      0.0231333	    0.00000E+00	    0.00000E+00	    0.00000E+00	  
255.0	      0.0250412	            000	      0.0250412	    0.00000E+00	    0.00000E+00	    0.00000E+00	  
254.5	      0.0274416	            000	      0.0274416	    0.00000E+00	    0.00000E+00	    0.00000E+00	  
254.0	      0.0311693	            000	      0.0311693	    0.00000E+00	    0.00000E+00	    0.00000E+00	  
253.5	      0.0208529	            000	      0.0208529	    0.00000E+00	    0.00000E+00	    0.00000E+00	  
253.0	      0.0092617	            000	      0.0092617	    0.00000E+00	    0.00000E+00	    0.00000E+00	  
252.5	    0.000616252	            000	    0.000616252	    0.00000E+00	    0.00000E+00	    0.00000E+00	  
252.0	    -0.00906622	            000	    -0.00906622	    0.00000E+00	    0.00000E+00	    0.00000E+00	  
251.5	     -0.0254269	            000	     -0.0254269	    0.00000E+00	    0.00000E+00	    0.00000E+00	  
251.0	      -0.051465	            000	      -0.051465	    0.00000E+00	    0.00000E+00	    0.00000E+00	  
250.5	     -0.0825083	            000	     -0.0825083	    0.00000E+00	    0.00000E+00	    0.00000E+00	  
250.0	      -0.116677	            000	      -0.116677	    0.00000E+00	    0.00000E+00	    0.00000E+00	  
249.5	      -0.159142	            000	      -0.159142	    0.00000E+00	    0.00000E+00	    0.00000E+00	  
249.0	      -0.190532	            000	      -0.190532	    0.00000E+00	    0.00000E+00	    0.00000E+00	  
248.5	      -0.221726	            000	      -0.221726	    0.00000E+00	    0.00000E+00	    0.00000E+00	  
248.0	      -0.279955	            000	      -0.279955	    0.00000E+00	    0.00000E+00	    0.00000E+00	  
247.5	      -0.330382	            000	      -0.330382	    0.00000E+00	    0.00000E+00	    0.00000E+00	  
247.0	      -0.372024	            000	      -0.372024	    0.00000E+00	    0.00000E+00	    0.00000E+00	  
246.5	      -0.429521	            000	      -0.429521	    0.00000E+00	    0.00000E+00	    0.00000E+00	  
246.0	       -0.50755	            000	       -0.50755	    0.00000E+00	    0.00000E+00	    0.00000E+00	  
245.5	      -0.585315	            000	      -0.585315	    0.00000E+00	    0.00000E+00	    0.00000E+00	  
245.0	       -0.67125	            000	       -0.67125	    0.00000E+00	    0.00000E+00	    0.00000E+00	  
244.5	      -0.760256	            000	      -0.760256	    0.00000E+00	    0.00000E+00	    0.00000E+00	  
244.0	      -0.841715	            000	      -0.841715	    0.00000E+00	    0.00000E+00	    0.00000E+00	  
243.5	      -0.944669	            000	      -0.944669	    0.00000E+00	    0.00000E+00	    0.00000E+00	  
243.0	        -1.0523	            000	        -1.0523	    0.00000E+00	    0.00000E+00	    0.00000E+00	  
242.5	       -1.17004	            000	       -1.17004	    0.00000E+00	    0.00000E+00	    0.00000E+00	  
242.0	       -1.32357	            000	       -1.32357	    0.00000E+00	    0.00000E+00	    0.00000E+00	  
241.5	       -1.46586	            000	       -1.46586	    0.00000E+00	    0.00000E+00	    0.00000E+00	  
241.0	       -1.62359	            000	       -1.62359	    0.00000E+00	    0.00000E+00	    0.00000E+00	  
240.5	       -1.80186	            000	       -1.80186	    0.00000E+00	    0.00000E+00	    0.00000E+00	  
240.0	       -1.96862	            000	       -1.96862	    0.00000E+00	    0.00000E+00	    0.00000E+00	  
239.5	       -2.14131	            000	       -2.14131	    0.00000E+00	    0.00000E+00	    0.00000E+00	  
239.0	       -2.30757	            000	       -2.30757	    0.00000E+00	    0.00000E+00	    0.00000E+00	  
238.5	       -2.47753	            000	       -2.47753	    0.00000E+00	    0.00000E+00	    0.00000E+00	  
238.0	       -2.69023	            000	       -2.69023	    0.00000E+00	    0.00000E+00	    0.00000E+00	  
237.5	       -2.92518	            000	       -2.92518	    0.00000E+00	    0.00000E+00	    0.00000E+00	  
237.0	       -3.16348	            000	       -3.16348	    0.00000E+00	    0.00000E+00	    0.00000E+00	  
236.5	       -3.41977	            000	       -3.41977	    0.00000E+00	    0.00000E+00	    0.00000E+00	  
236.0	       -3.69409	            000	       -3.69409	    0.00000E+00	    0.00000E+00	    0.00000E+00	  
235.5	       -3.97098	            000	       -3.97098	    0.00000E+00	    0.00000E+00	    0.00000E+00	  
235.0	       -4.24642	            000	       -4.24642	    0.00000E+00	    0.00000E+00	    0.00000E+00	  
234.5	       -4.53358	            000	       -4.53358	    0.00000E+00	    0.00000E+00	    0.00000E+00	  
234.0	       -4.80756	            000	       -4.80756	    0.00000E+00	    0.00000E+00	    0.00000E+00	  
233.5	       -5.10375	            000	       -5.10375	    0.00000E+00	    0.00000E+00	    0.00000E+00	  
233.0	       -5.41443	            000	       -5.41443	    0.00000E+00	    0.00000E+00	    0.00000E+00	  
232.5	        -5.7078	            000	        -5.7078	    0.00000E+00	    0.00000E+00	    0.00000E+00	  
232.0	       -6.02029	            000	       -6.02029	    0.00000E+00	    0.00000E+00	    0.00000E+00	  
231.5	       -6.33883	            000	       -6.33883	    0.00000E+00	    0.00000E+00	    0.00000E+00	  
231.0	       -6.64999	            000	       -6.64999	    0.00000E+00	    0.00000E+00	    0.00000E+00	  
230.5	       -6.98171	            000	       -6.98171	    0.00000E+00	    0.00000E+00	    0.00000E+00	  
230.0	       -7.29535	            000	       -7.29535	    0.00000E+00	    0.00000E+00	    0.00000E+00	  
229.5	       -7.59195	            000	       -7.59195	    0.00000E+00	    0.00000E+00	    0.00000E+00	  
229.0	       -7.90963	            000	       -7.90963	    0.00000E+00	    0.00000E+00	    0.00000E+00	  
228.5	        -8.2148	            000	        -8.2148	    0.00000E+00	    0.00000E+00	    0.00000E+00	  
228.0	       -8.50804	            000	       -8.50804	    0.00000E+00	    0.00000E+00	    0.00000E+00	  
227.5	       -8.81524	            000	       -8.81524	    0.00000E+00	    0.00000E+00	    0.00000E+00	  
227.0	       -9.11108	            000	       -9.11108	    0.00000E+00	    0.00000E+00	    0.00000E+00	  
226.5	       -9.42133	            000	       -9.42133	    0.00000E+00	    0.00000E+00	    0.00000E+00	  
226.0	       -9.71816	            000	       -9.71816	    0.00000E+00	    0.00000E+00	    0.00000E+00	  
225.5	       -10.0315	            000	       -10.0315	    0.00000E+00	    0.00000E+00	    0.00000E+00	  
225.0	       -10.3532	            000	       -10.3532	    0.00000E+00	    0.00000E+00	    0.00000E+00	  
224.5	       -10.6242	            000	       -10.6242	    0.00000E+00	    0.00000E+00	    0.00000E+00	  
224.0	       -10.9112	            000	       -10.9112	    0.00000E+00	    0.00000E+00	    0.00000E+00	  
223.5	       -11.1377	            000	       -11.1377	    0.00000E+00	    0.00000E+00	    0.00000E+00	  
223.0	       -11.3552	            000	       -11.3552	    0.00000E+00	    0.00000E+00	    0.00000E+00	  
222.5	       -11.5741	            000	       -11.5741	    0.00000E+00	    0.00000E+00	    0.00000E+00	  
222.0	       -11.7244	            000	       -11.7244	    0.00000E+00	    0.00000E+00	    0.00000E+00	  
221.5	       -11.8729	            000	       -11.8729	    0.00000E+00	    0.00000E+00	    0.00000E+00	  
221.0	       -11.9613	            000	       -11.9613	    0.00000E+00	    0.00000E+00	    0.00000E+00	  
220.5	       -12.0728	            000	       -12.0728	    0.00000E+00	    0.00000E+00	    0.00000E+00	  
220.0	       -12.1641	            000	       -12.1641	    0.00000E+00	    0.00000E+00	    0.00000E+00	  
219.5	       -12.2313	            000	       -12.2313	    0.00000E+00	    0.00000E+00	    0.00000E+00	  
219.0	       -12.2998	            000	       -12.2998	    0.00000E+00	    0.00000E+00	    0.00000E+00	  
218.5	       -12.3689	            000	       -12.3689	    0.00000E+00	    0.00000E+00	    0.00000E+00	  
218.0	       -12.4089	            000	       -12.4089	    0.00000E+00	    0.00000E+00	    0.00000E+00	  
217.5	       -12.4822	            000	       -12.4822	    0.00000E+00	    0.00000E+00	    0.00000E+00	  
217.0	       -12.4937	            000	       -12.4937	    0.00000E+00	    0.00000E+00	    0.00000E+00	  
216.5	       -12.5048	            000	       -12.5048	    0.00000E+00	    0.00000E+00	    0.00000E+00	  
216.0	       -12.5211	            000	       -12.5211	    0.00000E+00	    0.00000E+00	    0.00000E+00	  
215.5	       -12.5282	            000	       -12.5282	    0.00000E+00	    0.00000E+00	    0.00000E+00	  
215.0	       -12.5553	            000	       -12.5553	    0.00000E+00	    0.00000E+00	    0.00000E+00	  
214.5	       -12.5952	            000	       -12.5952	    0.00000E+00	    0.00000E+00	    0.00000E+00	  
214.0	       -12.6755	            000	       -12.6755	    0.00000E+00	    0.00000E+00	    0.00000E+00	  
213.5	       -12.7658	            000	       -12.7658	    0.00000E+00	    0.00000E+00	    0.00000E+00	  
213.0	       -12.9103	            000	       -12.9103	    0.00000E+00	    0.00000E+00	    0.00000E+00	  
212.5	        -13.014	            000	        -13.014	    0.00000E+00	    0.00000E+00	    0.00000E+00	  
212.0	       -13.1634	            000	       -13.1634	    0.00000E+00	    0.00000E+00	    0.00000E+00	  
211.5	       -13.2732	            000	       -13.2732	    0.00000E+00	    0.00000E+00	    0.00000E+00	  
211.0	        -13.379	            000	        -13.379	    0.00000E+00	    0.00000E+00	    0.00000E+00	  
210.5	       -13.4599	            000	       -13.4599	    0.00000E+00	    0.00000E+00	    0.00000E+00	  
210.0	       -13.5453	            000	       -13.5453	    0.00000E+00	    0.00000E+00	    0.00000E+00	  
209.5	       -13.5333	            000	       -13.5333	    0.00000E+00	    0.00000E+00	    0.00000E+00	  
209.0	       -13.4623	            000	       -13.4623	    0.00000E+00	    0.00000E+00	    0.00000E+00	  
208.5	       -13.3791	            000	       -13.3791	    0.00000E+00	    0.00000E+00	    0.00000E+00	  
208.0	       -13.2304	            000	       -13.2304	    0.00000E+00	    0.00000E+00	    0.00000E+00	  
207.5	       -12.9624	            000	       -12.9624	    0.00000E+00	    0.00000E+00	    0.00000E+00	  
207.0	       -12.5765	            000	       -12.5765	    0.00000E+00	    0.00000E+00	    0.00000E+00	  
206.5	       -12.0911	            000	       -12.0911	    0.00000E+00	    0.00000E+00	    0.00000E+00	  
206.0	       -11.5217	            000	       -11.5217	    0.00000E+00	    0.00000E+00	    0.00000E+00	  
205.5	       -10.9155	            000	       -10.9155	    0.00000E+00	    0.00000E+00	    0.00000E+00	  
205.0	       -10.2927	            000	       -10.2927	    0.00000E+00	    0.00000E+00	    0.00000E+00	  
204.5	       -9.63432	            000	       -9.63432	    0.00000E+00	    0.00000E+00	    0.00000E+00	  
204.0	       -8.94001	            000	       -8.94001	    0.00000E+00	    0.00000E+00	    0.00000E+00	  
203.5	       -8.19235	            000	       -8.19235	    0.00000E+00	    0.00000E+00	    0.00000E+00	  
203.0	       -7.38679	            000	       -7.38679	    0.00000E+00	    0.00000E+00	    0.00000E+00	  
202.5	       -6.59868	            000	       -6.59868	    0.00000E+00	    0.00000E+00	    0.00000E+00	  
202.0	       -5.55881	            000	       -5.55881	    0.00000E+00	    0.00000E+00	    0.00000E+00	  
201.5	       -4.41595	            000	       -4.41595	    0.00000E+00	    0.00000E+00	    0.00000E+00	  
201.0	       -3.22259	            000	       -3.22259	    0.00000E+00	    0.00000E+00	    0.00000E+00	  
200.5	       -1.94651	            000	       -1.94651	    0.00000E+00	    0.00000E+00	    0.00000E+00	  
200.0	      -0.582592	            000	      -0.582592	    0.00000E+00	    0.00000E+00	    0.00000E+00	  
199.5	       0.868108	            000	       0.868108	    0.00000E+00	    0.00000E+00	    0.00000E+00	  
199.0	         2.2238	            000	         2.2238	    0.00000E+00	    0.00000E+00	    0.00000E+00	  
198.5	        3.40842	            000	        3.40842	    0.00000E+00	    0.00000E+00	    0.00000E+00	  
198.0	        4.78451	            000	        4.78451	    0.00000E+00	    0.00000E+00	    0.00000E+00	  
197.5	        6.23143	            000	        6.23143	    0.00000E+00	    0.00000E+00	    0.00000E+00	  
197.0	         7.8584	            000	         7.8584	    0.00000E+00	    0.00000E+00	    0.00000E+00	  
196.5	        9.29068	            000	        9.29068	    0.00000E+00	    0.00000E+00	    0.00000E+00	  
196.0	        10.7378	            000	        10.7378	    0.00000E+00	    0.00000E+00	    0.00000E+00	  
195.5	        12.3774	            000	        12.3774	    0.00000E+00	    0.00000E+00	    0.00000E+00	  
195.0	        13.8276	            000	        13.8276	    0.00000E+00	    0.00000E+00	    0.00000E+00	  
194.5	        15.0355	            000	        15.0355	    0.00000E+00	    0.00000E+00	    0.00000E+00	  
194.0	        15.9298	            000	        15.9298	    0.00000E+00	    0.00000E+00	    0.00000E+00	  
193.5	        16.9383	            000	        16.9383	    0.00000E+00	    0.00000E+00	    0.00000E+00	  
193.0	        17.5445	            000	        17.5445	    0.00000E+00	    0.00000E+00	    0.00000E+00	  
192.5	        18.0137	            000	        18.0137	    0.00000E+00	    0.00000E+00	    0.00000E+00	  
192.0	        18.5343	            000	        18.5343	    0.00000E+00	    0.00000E+00	    0.00000E+00	  
191.5	        18.7524	            000	        18.7524	    0.00000E+00	    0.00000E+00	    0.00000E+00	  
191.0	        19.0258	            000	        19.0258	    0.00000E+00	    0.00000E+00	    0.00000E+00	  
190.5	        18.9744	            000	        18.9744	    0.00000E+00	    0.00000E+00	    0.00000E+00	  
190.0	        18.7612	            000	        18.7612	    0.00000E+00	    0.00000E+00	    0.00000E+00	  
189.5	        18.1567	            000	        18.1567	    0.00000E+00	    0.00000E+00	    0.00000E+00	  
189.0	        17.9011	            000	        17.9011	    0.00000E+00	    0.00000E+00	    0.00000E+00	  
188.5	        17.1814	            000	        17.1814	    0.00000E+00	    0.00000E+00	    0.00000E+00	  
188.0	        16.4886	            000	        16.4886	    0.00000E+00	    0.00000E+00	    0.00000E+00	  
187.5	         15.376	            000	         15.376	    0.00000E+00	    0.00000E+00	    0.00000E+00	  
187.0	        14.4776	            000	        14.4776	    0.00000E+00	    0.00000E+00	    0.00000E+00	  
186.5	        13.7333	            000	        13.7333	    0.00000E+00	    0.00000E+00	    0.00000E+00	  
186.0	        12.7183	            000	        12.7183	    0.00000E+00	    0.00000E+00	    0.00000E+00	  
185.5	        11.1678	            000	        11.1678	    0.00000E+00	    0.00000E+00	    0.00000E+00	  
185.0	         10.192	            000	         10.192	    0.00000E+00	    0.00000E+00	    0.00000E+00	  
