Generic               	CD0003894000
Experiment            	Beta-2-microglobulin
Description           	Protein name : Beta-2-microglobulin. Deposited into the PCDDB by Frank Wien
Concentration (mg/ml) 	4.35
Temperature           	25
Machine               	Soleil DISCO
Pathlength (cm)       	0.0035
Accumulations         	6
High Wavelength       	286
Low Wavelength        	175
Interval (nm)         	1
Dwell time (s)        	3
Date                  	2010-04-11T00:00:00
M.R.W. (Da)           	119.82
Smoothing window      	7
PDB                   	2YXF
Swissprot             	P61769[21-119]
Code                  	No citation information currently associated with this entry.
286.0	   -5.39225E-02	     -476.44440	   -5.39225E-02	    0.00000E+00	    0.00000E+00	    0.00000E+00	  
285.0	    2.76281E-03	     -476.22980	    2.76281E-03	    0.00000E+00	    0.00000E+00	    0.00000E+00	  
284.0	   -2.36655E-02	     -475.70190	   -2.36655E-02	    0.00000E+00	    0.00000E+00	    0.00000E+00	  
283.0	   -2.22250E-02	     -473.72260	   -2.22250E-02	    0.00000E+00	    0.00000E+00	    0.00000E+00	  
282.0	   -3.74455E-02	     -473.10490	   -3.74455E-02	    0.00000E+00	    0.00000E+00	    0.00000E+00	  
281.0	   -4.64752E-02	     -471.02130	   -4.64752E-02	    0.00000E+00	    0.00000E+00	    0.00000E+00	  
280.0	   -5.62284E-02	     -470.38280	   -5.62284E-02	    0.00000E+00	    0.00000E+00	    0.00000E+00	  
279.0	   -5.67235E-02	     -468.53320	   -5.67235E-02	    0.00000E+00	    0.00000E+00	    0.00000E+00	  
278.0	   -5.02238E-02	     -468.86040	   -5.02238E-02	    0.00000E+00	    0.00000E+00	    0.00000E+00	  
277.0	   -3.55241E-02	     -466.71970	   -3.55241E-02	    0.00000E+00	    0.00000E+00	    0.00000E+00	  
276.0	   -2.36448E-02	     -466.18450	   -2.36448E-02	    0.00000E+00	    0.00000E+00	    0.00000E+00	  
275.0	   -2.02423E-02	     -466.08380	   -2.02423E-02	    0.00000E+00	    0.00000E+00	    0.00000E+00	  
274.0	   -2.23608E-02	     -464.95520	   -2.23608E-02	    0.00000E+00	    0.00000E+00	    0.00000E+00	  
273.0	   -2.54712E-02	     -464.53090	   -2.54712E-02	    0.00000E+00	    0.00000E+00	    0.00000E+00	  
272.0	   -2.24569E-02	     -464.10520	   -2.24569E-02	    0.00000E+00	    0.00000E+00	    0.00000E+00	  
271.0	   -1.04678E-02	     -463.45000	   -1.04678E-02	    0.00000E+00	    0.00000E+00	    0.00000E+00	  
270.0	   -5.00281E-03	     -462.67730	   -5.00281E-03	    0.00000E+00	    0.00000E+00	    0.00000E+00	  
269.0	   -4.35105E-03	     -463.76490	   -4.35105E-03	    0.00000E+00	    0.00000E+00	    0.00000E+00	  
268.0	    8.36811E-04	     -463.03660	    8.36811E-04	    0.00000E+00	    0.00000E+00	    0.00000E+00	  
267.0	    6.80486E-03	     -463.69940	    6.80486E-03	    0.00000E+00	    0.00000E+00	    0.00000E+00	  
266.0	    8.93165E-03	     -464.15280	    8.93165E-03	    0.00000E+00	    0.00000E+00	    0.00000E+00	  
265.0	    4.48835E-03	     -464.58310	    4.48835E-03	    0.00000E+00	    0.00000E+00	    0.00000E+00	  
264.0	    2.72232E-04	     -466.32320	    2.72232E-04	    0.00000E+00	    0.00000E+00	    0.00000E+00	  
263.0	   -1.38573E-02	     -466.15820	   -1.38573E-02	    0.00000E+00	    0.00000E+00	    0.00000E+00	  
262.0	   -1.57322E-02	     -467.95640	   -1.57322E-02	    0.00000E+00	    0.00000E+00	    0.00000E+00	  
261.0	   -2.39637E-03	     -468.26670	   -2.39637E-03	    0.00000E+00	    0.00000E+00	    0.00000E+00	  
260.0	    1.05623E-02	     -469.83120	    1.05623E-02	    0.00000E+00	    0.00000E+00	    0.00000E+00	  
259.0	    2.37015E-02	     -470.01790	    2.37015E-02	    0.00000E+00	    0.00000E+00	    0.00000E+00	  
258.0	    3.44483E-02	     -470.70140	    3.44483E-02	    0.00000E+00	    0.00000E+00	    0.00000E+00	  
257.0	    3.67000E-02	     -471.56300	    3.67000E-02	    0.00000E+00	    0.00000E+00	    0.00000E+00	  
256.0	    2.83290E-02	     -473.25840	    2.83290E-02	    0.00000E+00	    0.00000E+00	    0.00000E+00	  
255.0	    2.57866E-02	     -472.91240	    2.57866E-02	    0.00000E+00	    0.00000E+00	    0.00000E+00	  
254.0	    1.88518E-02	     -473.94540	    1.88518E-02	    0.00000E+00	    0.00000E+00	    0.00000E+00	  
253.0	    1.93068E-02	     -475.37960	    1.93068E-02	    0.00000E+00	    0.00000E+00	    0.00000E+00	  
252.0	    2.76334E-02	     -475.35480	    2.76334E-02	    0.00000E+00	    0.00000E+00	    0.00000E+00	  
251.0	    4.26299E-02	     -475.89220	    4.26299E-02	    0.00000E+00	    0.00000E+00	    0.00000E+00	  
250.0	    4.70238E-02	     -476.72480	    4.70238E-02	    0.00000E+00	    0.00000E+00	    0.00000E+00	  
249.0	    4.70815E-02	     -478.85720	    4.70815E-02	    0.00000E+00	    0.00000E+00	    0.00000E+00	  
248.0	    3.74844E-02	     -479.35990	    3.74844E-02	    0.00000E+00	    0.00000E+00	    0.00000E+00	  
247.0	    2.80400E-02	     -479.99220	    2.80400E-02	    0.00000E+00	    0.00000E+00	    0.00000E+00	  
246.0	    3.10565E-02	     -481.21080	    3.10565E-02	    0.00000E+00	    0.00000E+00	    0.00000E+00	  
245.0	    3.73314E-02	     -482.05690	    3.73314E-02	    0.00000E+00	    0.00000E+00	    0.00000E+00	  
244.0	    3.15287E-02	     -483.31640	    3.15287E-02	    0.00000E+00	    0.00000E+00	    0.00000E+00	  
243.0	    2.23912E-02	     -484.69820	    2.23912E-02	    0.00000E+00	    0.00000E+00	    0.00000E+00	  
242.0	    1.15638E-02	     -485.75400	    1.15638E-02	    0.00000E+00	    0.00000E+00	    0.00000E+00	  
241.0	    1.41278E-02	     -486.68590	    1.41278E-02	    0.00000E+00	    0.00000E+00	    0.00000E+00	  
240.0	    3.46851E-02	     -487.42480	    3.46851E-02	    0.00000E+00	    0.00000E+00	    0.00000E+00	  
239.0	    6.71327E-02	     -489.59390	    6.71327E-02	    0.00000E+00	    0.00000E+00	    0.00000E+00	  
238.0	    7.20900E-02	     -490.92000	    7.20900E-02	    0.00000E+00	    0.00000E+00	    0.00000E+00	  
237.0	    7.40902E-02	     -491.69190	    7.40902E-02	    0.00000E+00	    0.00000E+00	    0.00000E+00	  
236.0	    7.46708E-02	     -493.25150	    7.46708E-02	    0.00000E+00	    0.00000E+00	    0.00000E+00	  
235.0	    8.66434E-02	     -493.66580	    8.66434E-02	    0.00000E+00	    0.00000E+00	    0.00000E+00	  
234.0	    1.09433E-01	     -494.10510	    1.09433E-01	    0.00000E+00	    0.00000E+00	    0.00000E+00	  
233.0	    1.44778E-01	     -495.53750	    1.44778E-01	    0.00000E+00	    0.00000E+00	    0.00000E+00	  
232.0	    1.58744E-01	     -495.51100	    1.58744E-01	    0.00000E+00	    0.00000E+00	    0.00000E+00	  
231.0	    1.62340E-01	     -496.76800	    1.62340E-01	    0.00000E+00	    0.00000E+00	    0.00000E+00	  
230.0	    1.50089E-01	     -497.74610	    1.50089E-01	    0.00000E+00	    0.00000E+00	    0.00000E+00	  
229.0	    1.22689E-01	     -498.08580	    1.22689E-01	    0.00000E+00	    0.00000E+00	    0.00000E+00	  
228.0	    8.96015E-02	     -498.53270	    8.96015E-02	    0.00000E+00	    0.00000E+00	    0.00000E+00	  
227.0	    4.56751E-02	     -499.55790	    4.56751E-02	    0.00000E+00	    0.00000E+00	    0.00000E+00	  
226.0	   -2.71991E-03	     -500.13950	   -2.71991E-03	    0.00000E+00	    0.00000E+00	    0.00000E+00	  
225.0	   -7.28178E-02	     -501.26670	   -7.28178E-02	    0.00000E+00	    0.00000E+00	    0.00000E+00	  
224.0	   -1.62313E-01	     -502.87110	   -1.62313E-01	    0.00000E+00	    0.00000E+00	    0.00000E+00	  
223.0	   -2.48703E-01	     -503.81460	   -2.48703E-01	    0.00000E+00	    0.00000E+00	    0.00000E+00	  
222.0	   -3.20530E-01	     -505.29660	   -3.20530E-01	    0.00000E+00	    0.00000E+00	    0.00000E+00	  
221.0	   -3.83103E-01	     -506.21540	   -3.83103E-01	    0.00000E+00	    0.00000E+00	    0.00000E+00	  
220.0	   -4.06403E-01	     -507.47550	   -4.06403E-01	    0.00000E+00	    0.00000E+00	    0.00000E+00	  
219.0	   -4.04656E-01	     -508.59410	   -4.04656E-01	    0.00000E+00	    0.00000E+00	    0.00000E+00	  
218.0	   -3.65681E-01	     -509.30280	   -3.65681E-01	    0.00000E+00	    0.00000E+00	    0.00000E+00	  
217.0	   -2.87599E-01	     -511.02490	   -2.87599E-01	    0.00000E+00	    0.00000E+00	    0.00000E+00	  
216.0	   -1.62417E-01	     -512.91470	   -1.62417E-01	    0.00000E+00	    0.00000E+00	    0.00000E+00	  
215.0	    3.28634E-03	     -514.35710	    3.28634E-03	    0.00000E+00	    0.00000E+00	    0.00000E+00	  
214.0	    2.18923E-01	     -516.86730	    2.18923E-01	    0.00000E+00	    0.00000E+00	    0.00000E+00	  
213.0	    4.62261E-01	     -519.52980	    4.62261E-01	    0.00000E+00	    0.00000E+00	    0.00000E+00	  
212.0	    7.41317E-01	     -522.03770	    7.41317E-01	    0.00000E+00	    0.00000E+00	    0.00000E+00	  
211.0	    1.04192E+00	     -525.50720	    1.04192E+00	    0.00000E+00	    0.00000E+00	    0.00000E+00	  
210.0	    1.37768E+00	     -529.44180	    1.37768E+00	    0.00000E+00	    0.00000E+00	    0.00000E+00	  
209.0	    1.73203E+00	     -533.92110	    1.73203E+00	    0.00000E+00	    0.00000E+00	    0.00000E+00	  
208.0	    2.11329E+00	     -540.08150	    2.11329E+00	    0.00000E+00	    0.00000E+00	    0.00000E+00	  
207.0	    2.48848E+00	     -547.70540	    2.48848E+00	    0.00000E+00	    0.00000E+00	    0.00000E+00	  
206.0	    2.85728E+00	     -556.65080	    2.85728E+00	    0.00000E+00	    0.00000E+00	    0.00000E+00	  
205.0	    3.18953E+00	     -566.63190	    3.18953E+00	    0.00000E+00	    0.00000E+00	    0.00000E+00	  
204.0	    3.46526E+00	     -579.23240	    3.46526E+00	    0.00000E+00	    0.00000E+00	    0.00000E+00	  
203.0	    3.65029E+00	     -592.62710	    3.65029E+00	    0.00000E+00	    0.00000E+00	    0.00000E+00	  
202.0	    3.75233E+00	     -609.03620	    3.75233E+00	    0.00000E+00	    0.00000E+00	    0.00000E+00	  
201.0	    3.74391E+00	     -624.41580	    3.74391E+00	    0.00000E+00	    0.00000E+00	    0.00000E+00	  
200.0	    3.61860E+00	     -641.85000	    3.61860E+00	    0.00000E+00	    0.00000E+00	    0.00000E+00	  
199.0	    3.39544E+00	     -658.67360	    3.39544E+00	    0.00000E+00	    0.00000E+00	    0.00000E+00	  
198.0	    3.06012E+00	     -675.18230	    3.06012E+00	    0.00000E+00	    0.00000E+00	    0.00000E+00	  
197.0	    2.62419E+00	     -689.04160	    2.62419E+00	    0.00000E+00	    0.00000E+00	    0.00000E+00	  
196.0	    2.05074E+00	     -701.49090	    2.05074E+00	    0.00000E+00	    0.00000E+00	    0.00000E+00	  
195.0	    1.33251E+00	     -711.17380	    1.33251E+00	    0.00000E+00	    0.00000E+00	    0.00000E+00	  
194.0	    5.24006E-01	     -718.16230	    5.24006E-01	    0.00000E+00	    0.00000E+00	    0.00000E+00	  
193.0	   -2.15583E-01	     -722.93080	   -2.15583E-01	    0.00000E+00	    0.00000E+00	    0.00000E+00	  
192.0	   -8.65647E-01	     -724.69370	   -8.65647E-01	    0.00000E+00	    0.00000E+00	    0.00000E+00	  
191.0	   -1.40126E+00	     -723.82700	   -1.40126E+00	    0.00000E+00	    0.00000E+00	    0.00000E+00	  
190.0	   -1.84770E+00	     -719.93080	   -1.84770E+00	    0.00000E+00	    0.00000E+00	    0.00000E+00	  
189.0	   -2.21983E+00	     -715.34860	   -2.21983E+00	    0.00000E+00	    0.00000E+00	    0.00000E+00	  
188.0	   -2.51099E+00	     -710.28770	   -2.51099E+00	    0.00000E+00	    0.00000E+00	    0.00000E+00	  
187.0	   -2.73928E+00	     -703.53690	   -2.73928E+00	    0.00000E+00	    0.00000E+00	    0.00000E+00	  
186.0	   -2.90966E+00	     -697.62810	   -2.90966E+00	    0.00000E+00	    0.00000E+00	    0.00000E+00	  
185.0	   -3.08622E+00	     -691.80030	   -3.08622E+00	    0.00000E+00	    0.00000E+00	    0.00000E+00	  
184.0	   -3.27161E+00	     -687.78670	   -3.27161E+00	    0.00000E+00	    0.00000E+00	    0.00000E+00	  
183.0	   -3.48115E+00	     -684.36590	   -3.48115E+00	    0.00000E+00	    0.00000E+00	    0.00000E+00	  
182.0	   -3.71875E+00	     -683.61780	   -3.71875E+00	    0.00000E+00	    0.00000E+00	    0.00000E+00	  
181.0	   -4.04014E+00	     -685.45140	   -4.04014E+00	    0.00000E+00	    0.00000E+00	    0.00000E+00	  
180.0	   -4.34181E+00	     -690.57200	   -4.34181E+00	    0.00000E+00	    0.00000E+00	    0.00000E+00	  
179.0	   -4.61285E+00	     -697.96180	   -4.61285E+00	    0.00000E+00	    0.00000E+00	    0.00000E+00	  
178.0	   -4.86338E+00	     -711.38170	   -4.86338E+00	    0.00000E+00	    0.00000E+00	    0.00000E+00	  
177.0	   -5.00818E+00	     -732.03210	   -5.00818E+00	    0.00000E+00	    0.00000E+00	    0.00000E+00	  
176.0	   -4.89932E+00	     -762.53430	   -4.89932E+00	    0.00000E+00	    0.00000E+00	    0.00000E+00	  
175.0	   -4.34556E+00	     -803.26890	   -4.34556E+00	    0.00000E+00	    0.00000E+00	    0.00000E+00	  
